Wavenumber,Percent Transmittance
399.282035,73.643582
400.246484,79.715213
401.210934,84.74573
402.175383,81.998039
403.139832,78.389111
404.104282,81.440644
405.068731,82.578277
406.033181,76.792088
406.997630,71.717312
407.962079,72.307583
408.926529,75.495315
409.890978,74.80988
410.855427,73.395387
411.819877,76.721364
412.784326,81.236958
413.748775,81.540239
414.713225,81.244634
415.677674,81.25398
416.642124,76.206242
417.606573,69.543111
418.571022,58.958945
419.535472,67.394499
420.499921,73.749459
421.464370,73.956234
422.428820,71.568294
423.393269,70.316727
424.357718,75.324325
425.322168,75.941757
426.286617,73.832946
427.251066,74.94531
428.215516,73.134818
429.179965,71.068356
430.144415,73.533595
431.108864,74.823611
432.073313,73.561351
433.037763,74.019574
434.002212,73.650827
434.966661,74.510058
435.931111,76.460605
436.895560,75.091689
437.860009,76.740453
438.824459,79.72319
439.788908,79.05571
440.753358,77.274347
441.717807,74.547583
442.682256,72.934539
443.646706,74.503199
444.611155,75.843239
445.575604,75.356126
446.540054,73.123471
447.504503,72.862695
448.468952,74.158847
449.433402,74.759968
450.397851,75.616035
451.362300,75.18515
452.326750,73.634696
453.291199,72.179934
454.255649,72.537101
455.220098,72.488463
456.184547,72.587821
457.148997,71.800601
458.113446,71.785588
459.077895,72.668579
460.042345,72.256417
461.006794,72.02542
461.971243,73.109963
462.935693,73.660623
463.900142,73.530259
464.864592,73.662728
465.829041,73.792792
466.793490,73.263059
467.757940,72.453829
468.722389,72.51031
469.686838,73.23845
470.651288,73.286502
471.615737,72.939
472.580186,73.101006
473.544636,74.941396
474.509085,75.497675
475.473534,74.948206
476.437984,74.864543
477.402433,76.107893
478.366883,76.426442
479.331332,76.280618
480.295781,76.74698
481.260231,77.324649
482.224680,77.918038
483.189129,76.776259
484.153579,76.405685
485.118028,77.478958
486.082477,77.684368
487.046927,78.126191
488.011376,78.206532
488.975826,77.753237
489.940275,77.634353
490.904724,77.82023
491.869174,77.78588
492.833623,78.528539
493.798072,78.876113
494.762522,78.965513
495.726971,79.717573
496.691420,79.831777
497.655870,79.002324
498.620319,79.035173
499.584768,79.683365
500.549218,79.762016
501.513667,78.834235
502.478117,78.422554
503.442566,78.660911
504.407015,78.486301
505.371465,78.367158
506.335914,78.392027
507.300363,78.615381
508.264813,78.947924
509.229262,79.006741
510.193711,79.332945
511.158161,79.456051
512.122610,79.55187
513.087060,79.857119
514.051509,79.5584
515.015958,79.004674
515.980408,79.021856
516.944857,78.340045
517.909306,78.857803
518.873756,79.422189
519.838205,79.656255
520.802654,80.167466
521.767104,80.207987
522.731553,79.687118
523.696002,79.499423
524.660452,79.67215
525.624901,79.333354
526.589351,79.4249
527.553800,79.432689
528.518249,79.654654
529.482699,80.164508
530.447148,79.978655
531.411597,80.095297
532.376047,80.198134
533.340496,79.647319
534.304945,79.018292
535.269395,78.950593
536.233844,79.275985
537.198294,79.815564
538.162743,80.080862
539.127192,80.5473
540.091642,80.563821
541.056091,80.306203
542.020540,80.039153
542.984990,79.720124
543.949439,79.466406
544.913888,79.324055
545.878338,78.854867
546.842787,78.776848
547.807236,78.481372
548.771686,78.704476
549.736135,78.952627
550.700585,78.837085
551.665034,78.964123
552.629483,79.158714
553.593933,78.977186
554.558382,79.18213
555.522831,79.369537
556.487281,78.548128
557.451730,78.176634
558.416179,78.501367
559.380629,78.788057
560.345078,78.748798
561.309528,78.415574
562.273977,78.225744
563.238426,78.34376
564.202876,77.816377
565.167325,76.871183
566.131774,76.873785
567.096224,76.445536
568.060673,76.047065
569.025122,75.390301
569.989572,74.915226
570.954021,74.236381
571.918470,73.392009
572.882920,73.230443
573.847369,72.949014
574.811819,72.749437
575.776268,72.117236
576.740717,70.978628
577.705167,70.629046
578.669616,70.435162
579.634065,70.167279
580.598515,69.791786
581.562964,69.882953
582.527413,69.976133
583.491863,70.06196
584.456312,69.764368
585.420762,69.572306
586.385211,69.651705
587.349660,69.783445
588.314110,69.854647
589.278559,70.123381
590.243008,70.156208
591.207458,69.792526
592.171907,69.743648
593.136356,70.333454
594.100806,70.359538
595.065255,70.246905
596.029704,69.995638
596.994154,69.82385
597.958603,69.924993
598.923053,70.557294
599.887502,70.74782
600.851951,70.763154
601.816401,70.715174
602.780850,70.80524
603.745299,71.016721
604.709749,71.157176
605.674198,71.32816
606.638647,71.549738
607.603097,71.760845
608.567546,71.883142
609.531996,72.025565
610.496445,72.132975
611.460894,72.11169
612.425344,72.387913
613.389793,72.728632
614.354242,73.003537
615.318692,73.272477
616.283141,73.352734
617.247590,73.337585
618.212040,73.748424
619.176489,74.227895
620.140938,74.301558
621.105388,74.435529
622.069837,74.596787
623.034287,74.736674
623.998736,74.820425
624.963185,74.754407
625.927635,74.661836
626.892084,74.662342
627.856533,74.583241
628.820983,74.560198
629.785432,74.737514
630.749881,74.635274
631.714331,74.436583
632.678780,74.3614
633.643230,74.377454
634.607679,74.348147
635.572128,74.20009
636.536578,73.929068
637.501027,73.810212
638.465476,73.687126
639.429926,73.610745
640.394375,73.506706
641.358824,73.316623
642.323274,72.875162
643.287723,72.571554
644.252172,72.164595
645.216622,71.808103
646.181071,71.570807
647.145521,71.2037
648.109970,70.818115
649.074419,70.445697
650.038869,70.204158
651.003318,70.057933
651.967767,69.718387
652.932217,69.377259
653.896666,69.040226
654.861115,68.682788
655.825565,68.318878
656.790014,68.000635
657.754464,67.631197
658.718913,67.231066
659.683362,66.915785
660.647812,66.549925
661.612261,66.104985
662.576710,65.778842
663.541160,65.524301
664.505609,65.160481
665.470058,64.594869
666.434508,64.292265
667.398957,67.125127
668.363406,62.223206
669.327856,60.11705
670.292305,60.096126
671.256755,59.605003
672.221204,58.814471
673.185653,58.029083
674.150103,57.257894
675.114552,56.413644
676.079001,55.620716
677.043451,54.794843
678.007900,53.903251
678.972349,53.01248
679.936799,52.219417
680.901248,51.397941
681.865698,50.578207
682.830147,49.658616
683.794596,48.829147
684.759046,48.122938
685.723495,47.406941
686.687944,46.571459
687.652394,45.913338
688.616843,45.353442
689.581292,44.867947
690.545742,44.29407
691.510191,43.764545
692.474640,43.339144
693.439090,42.850522
694.403539,42.33575
695.367989,41.912916
696.332438,41.512104
697.296887,41.115939
698.261337,40.667158
699.225786,40.258021
700.190235,39.867692
701.154685,39.497231
702.119134,39.020392
703.083583,38.429252
704.048033,37.728846
705.012482,36.946941
705.976932,36.185665
706.941381,35.613014
707.905830,34.762682
708.870280,33.992092
709.834729,33.078216
710.799178,32.066895
711.763628,31.151504
712.728077,30.260448
713.692526,29.152071
714.656976,28.146484
715.621425,27.010879
716.585874,25.847998
717.550324,24.557514
718.514773,23.180648
719.479223,21.72149
720.443672,20.473443
721.408121,19.689891
722.372571,19.332594
723.337020,19.392655
724.301469,19.997067
725.265919,20.848573
726.230368,21.919942
727.194817,23.139829
728.159267,24.442123
729.123716,25.716121
730.088166,27.001351
731.052615,28.259802
732.017064,29.640786
732.981514,30.958889
733.945963,32.364311
734.910412,33.787509
735.874862,35.292873
736.839311,36.778744
737.803760,38.286253
738.768210,39.695312
739.732659,41.149737
740.697108,42.608551
741.661558,44.107939
742.626007,45.420237
743.590457,46.810019
744.554906,48.127886
745.519355,49.381858
746.483805,50.617927
747.448254,51.882876
748.412703,53.044097
749.377153,54.123862
750.341602,55.089356
751.306051,56.106598
752.270501,57.169491
753.234950,57.953582
754.199400,58.477485
755.163849,59.078538
756.128298,59.548144
757.092748,59.920339
758.057197,60.259537
759.021646,60.53814
759.986096,60.862042
760.950545,61.23624
761.914994,61.510794
762.879444,61.888086
763.843893,62.221311
764.808342,62.460745
765.772792,62.774085
766.737241,63.345171
767.701691,63.991811
768.666140,64.610637
769.630589,64.958934
770.595039,65.361001
771.559488,65.897848
772.523937,66.474906
773.488387,66.986532
774.452836,67.606991
775.417285,68.159852
776.381735,68.705555
777.346184,69.106776
778.310634,69.375712
779.275083,69.854825
780.239532,70.330494
781.203982,70.497849
782.168431,70.677505
783.132880,71.016118
784.097330,71.448477
785.061779,71.775478
786.026228,72.012824
786.990678,72.228119
787.955127,72.621541
788.919576,72.776781
789.884026,72.902159
790.848475,73.056019
791.812925,73.171508
792.777374,73.200393
793.741823,73.407622
794.706273,73.619614
795.670722,73.769634
796.635171,73.929249
797.599621,74.101727
798.564070,74.214654
799.528519,74.361893
800.492969,74.467613
801.457418,74.510539
802.421868,74.489748
803.386317,74.525004
804.350766,74.604788
805.315216,74.379061
806.279665,74.131761
807.244114,74.247932
808.208564,74.172321
809.173013,73.997127
810.137462,73.784421
811.101912,73.640887
812.066361,73.46983
813.030810,73.163843
813.995260,72.847134
814.959709,72.787071
815.924159,72.63326
816.888608,72.493664
817.853057,72.462535
818.817507,72.300353
819.781956,71.985584
820.746405,71.734538
821.710855,71.455771
822.675304,71.176873
823.639753,70.808339
824.604203,70.366571
825.568652,70.096896
826.533102,70.003445
827.497551,69.831786
828.462000,69.567513
829.426450,69.216522
830.390899,68.882062
831.355348,68.630484
832.319798,68.448662
833.284247,68.13149
834.248696,67.979344
835.213146,67.753133
836.177595,67.385711
837.142044,67.007907
838.106494,66.697041
839.070943,66.339311
840.035393,65.922644
840.999842,65.433147
841.964291,65.122446
842.928741,64.797231
843.893190,64.450068
844.857639,64.112456
845.822089,63.960577
846.786538,63.78052
847.750987,63.610962
848.715437,63.436373
849.679886,63.394628
850.644336,63.227934
851.608785,62.994656
852.573234,62.727985
853.537684,62.583487
854.502133,62.519326
855.466582,62.528941
856.431032,62.418063
857.395481,62.416432
858.359930,62.475527
859.324380,62.518699
860.288829,62.416807
861.253278,62.333613
862.217728,62.204629
863.182177,62.073472
864.146627,61.885615
865.111076,61.783692
866.075525,61.619717
867.039975,61.47787
868.004424,61.267602
868.968873,61.248221
869.933323,61.334731
870.897772,61.250831
871.862221,61.146223
872.826671,61.295999
873.791120,61.454099
874.755570,61.531371
875.720019,61.575978
876.684468,61.718797
877.648918,61.872085
878.613367,61.965522
879.577816,61.944
880.542266,62.030019
881.506715,62.169521
882.471164,62.203087
883.435614,62.098774
884.400063,62.043831
885.364512,62.008768
886.328962,61.961786
887.293411,61.736497
888.257861,61.541859
889.222310,61.393193
890.186759,61.401717
891.151209,61.412999
892.115658,61.363918
893.080107,61.437747
894.044557,61.528965
895.009006,61.466054
895.973455,61.44499
896.937905,61.493741
897.902354,61.494684
898.866804,61.337734
899.831253,61.094504
900.795702,60.80526
901.760152,60.751053
902.724601,60.664456
903.689050,60.479491
904.653500,60.321543
905.617949,60.126531
906.582398,59.806918
907.546848,59.559177
908.511297,59.309251
909.475746,59.167903
910.440196,59.008459
911.404645,58.795551
912.369095,58.760119
913.333544,58.801092
914.297993,58.759113
915.262443,58.740896
916.226892,58.745175
917.191341,58.811552
918.155791,58.999214
919.120240,59.22411
920.084689,59.441937
921.049139,59.685046
922.013588,59.80722
922.978038,59.908692
923.942487,60.056333
924.906936,60.113229
925.871386,60.089984
926.835835,60.100473
927.800284,60.092106
928.764734,60.042829
929.729183,59.887512
930.693632,59.649277
931.658082,59.398272
932.622531,59.113924
933.586980,58.688482
934.551430,58.323916
935.515879,57.903389
936.480329,57.49631
937.444778,57.09687
938.409227,56.693533
939.373677,56.26671
940.338126,55.911585
941.302575,55.56148
942.267025,55.240295
943.231474,54.86514
944.195923,54.51044
945.160373,54.132857
946.124822,53.736793
947.089272,53.383671
948.053721,53.186796
949.018170,52.886778
949.982620,52.614621
950.947069,52.341829
951.911518,52.141092
952.875968,51.946426
953.840417,51.712215
954.804866,51.266036
955.769316,50.869895
956.733765,50.524629
957.698214,50.190644
958.662664,49.790957
959.627113,49.391885
960.591563,49.012638
961.556012,48.663724
962.520461,48.250164
963.484911,47.970001
964.449360,47.770063
965.413809,47.622194
966.378259,47.480952
967.342708,47.506332
968.307157,47.558177
969.271607,47.588348
970.236056,47.697257
971.200506,48.01023
972.164955,48.363707
973.129404,48.613982
974.093854,48.775263
975.058303,48.930696
976.022752,49.027208
976.987202,49.081107
977.951651,48.99618
978.916100,48.915694
979.880550,48.842751
980.844999,48.766394
981.809448,48.58812
982.773898,48.469214
983.738347,48.390929
984.702797,48.323019
985.667246,48.189516
986.631695,48.110645
987.596145,48.13947
988.560594,48.205478
989.525043,48.204432
990.489493,48.20887
991.453942,48.105171
992.418391,47.986824
993.382841,47.828767
994.347290,47.683209
995.311740,47.553374
996.276189,47.471883
997.240638,47.329198
998.205088,47.109045
999.169537,46.952544
1000.133986,46.90278
1001.098436,46.706645
1002.062885,46.512642
1003.027334,46.326929
1003.991784,46.132264
1004.956233,45.867898
1005.920682,45.680568
1006.885132,45.446877
1007.849581,45.234796
1008.814031,44.980984
1009.778480,44.729046
1010.742929,44.463728
1011.707379,44.213944
1012.671828,43.889244
1013.636277,43.570707
1014.600727,43.200648
1015.565176,42.843347
1016.529625,42.506423
1017.494075,42.159156
1018.458524,41.76769
1019.422974,41.419003
1020.387423,41.070834
1021.351872,40.751272
1022.316322,40.415903
1023.280771,40.137128
1024.245220,39.897119
1025.209670,39.731673
1026.174119,39.529889
1027.138568,39.350137
1028.103018,39.120369
1029.067467,38.926839
1030.031916,38.806235
1030.996366,38.797083
1031.960815,38.767789
1032.925265,38.763044
1033.889714,38.752142
1034.854163,38.872199
1035.818613,38.997853
1036.783062,39.138205
1037.747511,39.287176
1038.711961,39.467346
1039.676410,39.650048
1040.640859,39.859514
1041.605309,40.012595
1042.569758,40.127378
1043.534208,40.127656
1044.498657,40.017206
1045.463106,39.839444
1046.427556,39.619811
1047.392005,39.298769
1048.356454,38.945552
1049.320904,38.473627
1050.285353,37.978329
1051.249802,37.47365
1052.214252,36.945014
1053.178701,36.332299
1054.143150,35.754663
1055.107600,35.152666
1056.072049,34.65402
1057.036499,34.169044
1058.000948,33.740314
1058.965397,33.369611
1059.929847,33.012215
1060.894296,32.607154
1061.858745,32.27515
1062.823195,31.958106
1063.787644,31.749432
1064.752093,31.575364
1065.716543,31.448745
1066.680992,31.326643
1067.645442,31.232046
1068.609891,31.067157
1069.574340,30.886193
1070.538790,30.60592
1071.503239,30.215355
1072.467688,29.682044
1073.432138,29.167913
1074.396587,28.519324
1075.361036,27.692287
1076.325486,26.747584
1077.289935,25.793813
1078.254384,24.763509
1079.218834,23.715026
1080.183283,22.540287
1081.147733,21.395193
1082.112182,20.331972
1083.076631,19.373085
1084.041081,18.458406
1085.005530,17.650846
1085.969979,16.848952
1086.934429,16.134692
1087.898878,15.364479
1088.863327,14.625172
1089.827777,13.887389
1090.792226,13.237399
1091.756676,12.657593
1092.721125,12.173784
1093.685574,11.714935
1094.650024,11.370367
1095.614473,11.097305
1096.578922,10.96475
1097.543372,10.935226
1098.507821,11.004051
1099.472270,11.098736
1100.436720,11.244186
1101.401169,11.425112
1102.365618,11.71232
1103.330068,12.005964
1104.294517,12.34929
1105.258967,12.685699
1106.223416,12.979705
1107.187865,13.145499
1108.152315,13.238638
1109.116764,13.138441
1110.081213,12.908768
1111.045663,12.557111
1112.010112,12.157618
1112.974561,11.593814
1113.939011,11.094847
1114.903460,10.635596
1115.867910,10.254534
1116.832359,9.933358
1117.796808,9.718321
1118.761258,9.605452
1119.725707,9.701359
1120.690156,9.94262
1121.654606,10.339842
1122.619055,10.784779
1123.583504,11.389449
1124.547954,12.064646
1125.512403,12.694023
1126.476852,13.18329
1127.441302,13.499375
1128.405751,13.528356
1129.370201,13.31643
1130.334650,12.77819
1131.299099,12.046553
1132.263549,11.100158
1133.227998,10.071416
1134.192447,9.01169
1135.156897,8.019459
1136.121346,7.058117
1137.085795,6.263009
1138.050245,5.561195
1139.014694,4.968537
1139.979144,4.417939
1140.943593,4.035833
1141.908042,3.708408
1142.872492,3.432873
1143.836941,3.215748
1144.801390,3.086395
1145.765840,2.96877
1146.730289,2.822705
1147.694738,2.649448
1148.659188,2.538998
1149.623637,2.366225
1150.588086,2.223594
1151.552536,2.058085
1152.516985,1.948648
1153.481435,1.769869
1154.445884,1.617104
1155.410333,1.516336
1156.374783,1.430022
1157.339232,1.305346
1158.303681,1.198999
1159.268131,1.082972
1160.232580,1.056226
1161.197029,1.022827
1162.161479,0.99716
1163.125928,0.941927
1164.090378,0.909433
1165.054827,0.851022
1166.019276,0.890322
1166.983726,0.927709
1167.948175,1.015843
1168.912624,1.023408
1169.877074,1.030325
1170.841523,1.091058
1171.805972,1.220431
1172.770422,1.2766
1173.734871,1.371126
1174.699320,1.484015
1175.663770,1.649498
1176.628219,1.771472
1177.592669,1.918353
1178.557118,2.023822
1179.521567,2.219307
1180.486017,2.440632
1181.450466,2.677612
1182.414915,2.867082
1183.379365,3.060929
1184.343814,3.253963
1185.308263,3.525294
1186.272713,3.752638
1187.237162,4.01309
1188.201612,4.266324
1189.166061,4.576129
1190.130510,4.858215
1191.094960,5.132135
1192.059409,5.405192
1193.023858,5.750295
1193.988308,6.025902
1194.952757,6.318029
1195.917206,6.684417
1196.881656,7.096228
1197.846105,7.483925
1198.810554,7.852747
1199.775004,8.134371
1200.739453,8.467267
1201.703903,8.779259
1202.668352,9.141921
1203.632801,9.468809
1204.597251,9.73698
1205.561700,9.925095
1206.526149,10.110479
1207.490599,10.253914
1208.455048,10.408396
1209.419497,10.529099
1210.383947,10.663145
1211.348396,10.753752
1212.312846,10.87696
1213.277295,10.955798
1214.241744,11.073935
1215.206194,11.169805
1216.170643,11.193917
1217.135092,11.135497
1218.099542,11.10954
1219.063991,11.058707
1220.028440,10.995503
1220.992890,10.873261
1221.957339,10.730319
1222.921788,10.54623
1223.886238,10.403291
1224.850687,10.233374
1225.815137,10.052594
1226.779586,9.783092
1227.744035,9.538763
1228.708485,9.382792
1229.672934,9.258535
1230.637383,9.042892
1231.601833,8.904324
1232.566282,8.774818
1233.530731,8.704099
1234.495181,8.570018
1235.459630,8.433762
1236.424080,8.292805
1237.388529,8.239231
1238.352978,8.189651
1239.317428,8.206187
1240.281877,8.259345
1241.246326,8.339675
1242.210776,8.467412
1243.175225,8.698471
1244.139674,8.965112
1245.104124,9.305167
1246.068573,9.616319
1247.033022,10.000979
1247.997472,10.410955
1248.961921,10.900282
1249.926371,11.36758
1250.890820,11.810922
1251.855269,12.148767
1252.819719,12.471709
1253.784168,12.723768
1254.748617,12.963068
1255.713067,13.145925
1256.677516,13.345122
1257.641965,13.51102
1258.606415,13.656309
1259.570864,13.749532
1260.535314,13.980681
1261.499763,14.241234
1262.464212,14.394608
1263.428662,14.49785
1264.393111,14.696973
1265.357560,14.820034
1266.322010,14.999405
1267.286459,15.265799
1268.250908,15.512549
1269.215358,15.714149
1270.179807,15.96116
1271.144256,16.120109
1272.108706,16.294029
1273.073155,16.406688
1274.037605,16.472728
1275.002054,16.517385
1275.966503,16.589027
1276.930953,16.596237
1277.895402,16.685771
1278.859851,16.815487
1279.824301,17.026693
1280.788750,17.316832
1281.753199,17.738352
1282.717649,18.30169
1283.682098,18.984449
1284.646548,19.704524
1285.610997,20.492463
1286.575446,21.174047
1287.539896,21.81212
1288.504345,22.420785
1289.468794,22.903393
1290.433244,23.169619
1291.397693,23.385572
1292.362142,23.527451
1293.326592,23.689564
1294.291041,23.851611
1295.255490,23.976658
1296.219940,23.993575
1297.184389,24.118358
1298.148839,24.174127
1299.113288,24.189458
1300.077737,24.272064
1301.042187,24.411939
1302.006636,24.543397
1302.971085,24.757894
1303.935535,24.983116
1304.899984,25.282627
1305.864433,25.529842
1306.828883,25.734402
1307.793332,25.920599
1308.757782,26.197909
1309.722231,26.358136
1310.686680,26.41937
1311.651130,26.298325
1312.615579,26.308879
1313.580028,26.478591
1314.544478,26.610286
1315.508927,26.688194
1316.473376,26.658411
1317.437826,26.682698
1318.402275,26.707521
1319.366724,26.865313
1320.331174,27.129615
1321.295623,27.417132
1322.260073,27.836496
1323.224522,28.278952
1324.188971,28.809813
1325.153421,29.382536
1326.117870,30.125539
1327.082319,30.794189
1328.046769,31.35144
1329.011218,31.765203
1329.975667,32.158836
1330.940117,32.358963
1331.904566,32.525634
1332.869016,32.506968
1333.833465,32.385688
1334.797914,32.031668
1335.762364,31.658988
1336.726813,31.171674
1337.691262,30.612626
1338.655712,29.917889
1339.620161,29.217826
1340.584610,28.994862
1341.549060,28.687707
1342.513509,28.216891
1343.477958,27.9337
1344.442408,27.606559
1345.406857,27.289748
1346.371307,26.908366
1347.335756,26.557358
1348.300205,26.140445
1349.264655,25.872069
1350.229104,25.62939
1351.193553,25.439475
1352.158003,25.263261
1353.122452,25.252237
1354.086901,25.154358
1355.051351,25.187754
1356.015800,25.177333
1356.980250,25.049704
1357.944699,24.907179
1358.909148,24.860581
1359.873598,24.600289
1360.838047,24.395755
1361.802496,24.18476
1362.766946,23.957081
1363.731395,24.237307
1364.695844,24.012453
1365.660294,23.700341
1366.624743,23.572548
1367.589192,23.360455
1368.553642,23.219451
1369.518091,23.163074
1370.482541,23.021914
1371.446990,22.74843
1372.411439,22.248133
1373.375889,21.490147
1374.340338,20.714103
1375.304787,19.561707
1376.269237,18.368886
1377.233686,17.330248
1378.198135,17.208617
1379.162585,18.145894
1380.127034,19.906213
1381.091484,21.764146
1382.055933,23.848475
1383.020382,25.737718
1383.984832,27.517549
1384.949281,28.973766
1385.913730,30.302194
1386.878180,31.70113
1387.842629,34.115217
1388.807078,35.239466
1389.771528,36.093657
1390.735977,36.98183
1391.700426,37.883712
1392.664876,38.339094
1393.629325,38.496092
1394.593775,38.660019
1395.558224,39.133671
1396.522673,39.127159
1397.487123,38.864442
1398.451572,38.646251
1399.416021,38.991927
1400.380471,38.947711
1401.344920,38.774524
1402.309369,38.832698
1403.273819,39.117548
1404.238268,39.578478
1405.202718,41.320051
1406.167167,42.428174
1407.131616,42.792093
1408.096066,42.968277
1409.060515,42.565958
1410.024964,41.500905
1410.989414,40.021918
1411.953863,38.065506
1412.918312,36.116039
1413.882762,34.059547
1414.847211,32.163664
1415.811660,30.54452
1416.776110,29.561263
1417.740559,29.108687
1418.705009,29.148723
1419.669458,31.24671
1420.633907,32.129617
1421.598357,32.670896
1422.562806,33.386705
1423.527255,33.897873
1424.491705,34.96392
1425.456154,34.698709
1426.420603,34.1438
1427.385053,33.171414
1428.349502,31.974138
1429.313952,30.548052
1430.278401,28.892364
1431.242850,27.305484
1432.207300,25.688955
1433.171749,24.254916
1434.136198,23.003928
1435.100648,21.718817
1436.065097,20.272363
1437.029546,19.694249
1437.993996,19.160948
1438.958445,18.314971
1439.922894,17.607614
1440.887344,17.025023
1441.851793,16.570394
1442.816243,16.166025
1443.780692,15.719149
1444.745141,15.301764
1445.709591,14.907844
1446.674040,14.348595
1447.638489,13.685404
1448.602939,13.245915
1449.567388,12.588223
1450.531837,11.6993
1451.496287,10.578187
1452.460736,9.230628
1453.425186,8.109975
1454.389635,6.791401
1455.354084,5.494078
1456.318534,4.114375
1457.282983,4.026176
1458.247432,4.680897
1459.211882,5.196145
1460.176331,5.031293
1461.140780,4.842331
1462.105230,4.61457
1463.069679,4.500893
1464.034128,4.118354
1464.998578,3.972606
1465.963027,4.056708
1466.927477,4.317375
1467.891926,5.151558
1468.856375,7.235832
1469.820825,10.522643
1470.785274,14.310612
1471.749723,20.16759
1472.714173,31.413163
1473.678622,39.920691
1474.643071,44.329735
1475.607521,47.038407
1476.571970,53.95267
1477.536420,57.537166
1478.500869,59.9743
1479.465318,62.633253
1480.429768,64.828019
1481.394217,67.157872
1482.358666,69.345245
1483.323116,70.714731
1484.287565,71.953375
1485.252014,72.855733
1486.216464,73.708819
1487.180913,75.102025
1488.145362,76.371565
1489.109812,76.306597
1490.074261,77.280789
1491.038711,78.995729
1492.003160,79.28956
1492.967609,79.81793
1493.932059,80.242945
1494.896508,80.778314
1495.860957,81.475038
1496.825407,82.307045
1497.789856,82.366677
1498.754305,82.612559
1499.718755,83.292286
1500.683204,83.034864
1501.647654,83.033784
1502.612103,83.651082
1503.576552,84.29472
1504.541002,84.98167
1505.505451,85.97512
1506.469900,83.309496
1507.434350,83.756261
1508.398799,84.712384
1509.363248,85.119035
1510.327698,85.352656
1511.292147,85.845698
1512.256596,86.089858
1513.221046,86.821207
1514.185495,86.786933
1515.149945,86.558479
1516.114394,86.567621
1517.078843,86.846929
1518.043293,88.25144
1519.007742,88.072503
1519.972191,88.206711
1520.936641,87.835291
1521.901090,88.631317
1522.865539,89.255508
1523.829989,89.117721
1524.794438,88.860481
1525.758888,88.941662
1526.723337,89.027562
1527.687786,89.053193
1528.652236,89.598582
1529.616685,89.847496
1530.581134,89.944506
1531.545584,89.931994
1532.510033,90.405487
1533.474482,90.461709
1534.438932,90.554731
1535.403381,90.372428
1536.367830,90.647089
1537.332280,91.057755
1538.296729,92.081446
1539.261179,90.975552
1540.225628,93.686094
1541.190077,92.826857
1542.154527,92.264874
1543.118976,91.533049
1544.083425,91.170307
1545.047875,90.843822
1546.012324,91.707871
1546.976773,91.830704
1547.941223,91.96552
1548.905672,91.95115
1549.870122,91.442909
1550.834571,91.901421
1551.799020,92.112199
1552.763470,92.23467
1553.727919,92.39776
1554.692368,92.288313
1555.656818,92.437632
1556.621267,92.729388
1557.585716,93.819985
1558.550166,85.480481
1559.514615,91.270811
1560.479064,93.730089
1561.443514,92.943593
1562.407963,92.723888
1563.372413,92.805963
1564.336862,92.833382
1565.301311,92.840358
1566.265761,92.864768
1567.230210,92.954454
1568.194659,93.215597
1569.159109,93.275
1570.123558,93.327165
1571.088007,93.174183
1572.052457,93.08614
1573.016906,93.164826
1573.981356,93.274986
1574.945805,93.534922
1575.910254,93.426385
1576.874704,93.568873
1577.839153,93.373856
1578.803602,93.28841
1579.768052,93.295058
1580.732501,93.371676
1581.696950,93.380801
1582.661400,93.371614
1583.625849,93.413618
1584.590298,93.458228
1585.554748,93.343525
1586.519197,93.275494
1587.483647,93.229486
1588.448096,93.217472
1589.412545,93.082057
1590.376995,93.049794
1591.341444,93.068046
1592.305893,93.084312
1593.270343,93.035138
1594.234792,92.984933
1595.199241,92.960416
1596.163691,92.930546
1597.128140,92.918744
1598.092590,92.884334
1599.057039,92.636352
1600.021488,92.570975
1600.985938,92.50512
1601.950387,92.419917
1602.914836,92.150829
1603.879286,92.048029
1604.843735,91.949442
1605.808184,91.804948
1606.772634,91.573696
1607.737083,91.485229
1608.701532,91.384987
1609.665982,91.243156
1610.630431,91.181609
1611.594881,90.995877
1612.559330,90.814003
1613.523779,90.73236
1614.488229,90.676956
1615.452678,90.993877
1616.417127,91.699367
1617.381577,91.513125
1618.346026,90.210091
1619.310475,89.79988
1620.274925,89.605572
1621.239374,89.578606
1622.203824,89.557286
1623.168273,89.39875
1624.132722,89.430034
1625.097172,89.064303
1626.061621,88.811859
1627.026070,88.756061
1627.990520,88.598612
1628.954969,88.493669
1629.919418,88.206797
1630.883868,88.033838
1631.848317,87.828326
1632.812766,87.717208
1633.777216,87.906287
1634.741665,89.001222
1635.706115,88.555036
1636.670564,87.401778
1637.635013,86.098324
1638.599463,85.535512
1639.563912,84.690147
1640.528361,83.828563
1641.492811,82.904828
1642.457260,81.961216
1643.421709,81.126836
1644.386159,80.527457
1645.350608,80.051836
1646.315058,79.187477
1647.279507,78.075071
1648.243956,77.422484
1649.208406,76.32176
1650.172855,75.464088
1651.137304,75.195306
1652.101754,75.337728
1653.066203,68.801573
1654.030652,75.177273
1654.995102,74.381887
1655.959551,73.632469
1656.924000,73.573214
1657.888450,74.322418
1658.852899,75.103763
1659.817349,75.850765
1660.781798,76.37157
1661.746247,77.211479
1662.710697,78.427277
1663.675146,79.499289
1664.639595,79.240078
1665.604045,79.192183
1666.568494,79.051171
1667.532943,78.940241
1668.497393,78.727135
1669.461842,79.695093
1670.426292,79.32108
1671.390741,78.394884
1672.355190,77.882085
1673.319640,77.406265
1674.284089,76.985428
1675.248538,76.611713
1676.212988,76.311111
1677.177437,75.531516
1678.141886,75.011818
1679.106336,74.166682
1680.070785,73.00769
1681.035234,72.449938
1681.999684,72.034499
1682.964133,71.51482
1683.928583,67.727237
1684.893032,70.053294
1685.857481,69.177548
1686.821931,67.807811
1687.786380,66.246736
1688.750829,65.380444
1689.715279,64.334789
1690.679728,63.208773
1691.644177,62.05892
1692.608627,60.869746
1693.573076,59.324778
1694.537526,57.903138
1695.501975,55.764508
1696.466424,54.096756
1697.430874,52.28443
1698.395323,50.488765
1699.359772,48.195159
1700.324222,43.309367
1701.288671,43.675546
1702.253120,41.547523
1703.217570,39.206016
1704.182019,36.86327
1705.146468,34.611162
1706.110918,32.632793
1707.075367,30.750166
1708.039817,29.275991
1709.004266,27.587577
1709.968715,26.164815
1710.933165,25.176537
1711.897614,24.304559
1712.862063,23.290563
1713.826513,22.381969
1714.790962,21.32328
1715.755411,20.909754
1716.719861,19.463115
1717.684310,17.846658
1718.648760,18.074623
1719.613209,17.452257
1720.577658,16.08904
1721.542108,14.853434
1722.506557,13.448764
1723.471006,12.104115
1724.435456,10.809673
1725.399905,9.578481
1726.364354,8.219957
1727.328804,6.962762
1728.293253,5.628284
1729.257702,4.420778
1730.222152,2.994885
1731.186601,2.338273
1732.151051,1.494521
1733.115500,0.661799
1734.079949,2.605377
1735.044399,0.883823
1736.008848,0.385727
1736.973297,0.340278
1737.937747,0.516514
1738.902196,0.68921
1739.866645,1.127452
1740.831095,0.597538
1741.795544,0.542483
1742.759994,0.675344
1743.724443,0.933041
1744.688892,0.622954
1745.653342,0.667374
1746.617791,0.582114
1747.582240,0.864345
1748.546690,0.940726
1749.511139,1.001466
1750.475588,0.818347
1751.440038,0.935715
1752.404487,0.335203
1753.368936,0.310906
1754.333386,0.187755
1755.297835,0.220048
1756.262285,0.555932
1757.226734,1.30432
1758.191183,2.521401
1759.155633,3.888163
1760.120082,5.564597
1761.084531,7.310928
1762.048981,12.480749
1763.013430,15.968516
1763.977879,18.883465
1764.942329,22.599254
1765.906778,26.217657
1766.871228,28.998527
1767.835677,32.583834
1768.800126,37.795505
1769.764576,39.791576
1770.729025,41.439056
1771.693474,44.428128
1772.657924,49.298632
1773.622373,52.040905
1774.586822,52.781314
1775.551272,54.535232
1776.515721,56.990811
1777.480170,58.276569
1778.444620,59.582462
1779.409069,61.012587
1780.373519,62.691857
1781.337968,64.591349
1782.302417,65.673473
1783.266867,66.470098
1784.231316,67.32863
1785.195765,68.820874
1786.160215,70.150664
1787.124664,71.160577
1788.089113,71.87632
1789.053563,72.543637
1790.018012,73.152907
1790.982462,73.729347
1791.946911,74.80831
1792.911360,76.363075
1793.875810,77.172719
1794.840259,76.810432
1795.804708,76.982187
1796.769158,78.019005
1797.733607,78.923467
1798.698056,79.318406
1799.662506,80.135635
1800.626955,80.637401
1801.591404,80.581456
1802.555854,81.213563
1803.520303,82.117786
1804.484753,82.456426
1805.449202,82.918607
1806.413651,83.261399
1807.378101,83.478527
1808.342550,84.102708
1809.306999,84.801396
1810.271449,85.019379
1811.235898,85.528623
1812.200347,85.905123
1813.164797,86.46559
1814.129246,86.993538
1815.093696,87.343911
1816.058145,87.609805
1817.022594,87.829095
1817.987044,88.259355
1818.951493,88.739544
1819.915942,89.028626
1820.880392,89.222732
1821.844841,89.357366
1822.809290,89.584371
1823.773740,89.92374
1824.738189,90.048728
1825.702638,90.366761
1826.667088,90.702782
1827.631537,90.828141
1828.595987,91.018834
1829.560436,90.969094
1830.524885,91.604415
1831.489335,91.768263
1832.453784,91.819548
1833.418233,91.939704
1834.382683,92.220853
1835.347132,92.443124
1836.311581,92.601172
1837.276031,92.718794
1838.240480,93.059577
1839.204930,93.22518
1840.169379,93.419722
1841.133828,93.558217
1842.098278,93.671206
1843.062727,93.917714
1844.027176,93.983674
1844.991626,94.272559
1845.956075,94.453345
1846.920524,94.527098
1847.884974,94.635742
1848.849423,94.971756
1849.813872,95.193968
1850.778322,95.329593
1851.742771,95.506744
1852.707221,95.673061
1853.671670,95.854949
1854.636119,95.97049
1855.600569,96.04354
1856.565018,96.188948
1857.529467,96.284001
1858.493917,96.264271
1859.458366,96.364812
1860.422815,96.428313
1861.387265,96.481483
1862.351714,96.656497
1863.316164,96.764095
1864.280613,96.807428
1865.245062,96.906869
1866.209512,96.930388
1867.173961,97.093884
1868.138410,97.131312
1869.102860,97.067348
1870.067309,97.102284
1871.031758,97.13174
1871.996208,97.251771
1872.960657,97.368137
1873.925106,97.409677
1874.889556,97.497937
1875.854005,97.567623
1876.818455,97.647266
1877.782904,97.704772
1878.747353,97.73342
1879.711803,97.812605
1880.676252,97.956441
1881.640701,98.022149
1882.605151,98.080427
1883.569600,98.062017
1884.534049,98.028698
1885.498499,98.098051
1886.462948,98.217425
1887.427398,98.301871
1888.391847,98.36559
1889.356296,98.180333
1890.320746,98.350235
1891.285195,98.473898
1892.249644,98.499101
1893.214094,98.498325
1894.178543,98.458783
1895.142992,98.42423
1896.107442,98.652523
1897.071891,98.702475
1898.036340,98.694754
1899.000790,98.726658
1899.965239,98.793551
1900.929689,98.794662
1901.894138,98.788952
1902.858587,98.810572
1903.823037,98.780346
1904.787486,98.798691
1905.751935,98.867882
1906.716385,98.873182
1907.680834,98.810149
1908.645283,98.887384
1909.609733,98.812808
1910.574182,98.856144
1911.538632,99.01755
1912.503081,99.01192
1913.467530,99.035792
1914.431980,99.001552
1915.396429,99.014993
1916.360878,99.064795
1917.325328,98.979913
1918.289777,98.872966
1919.254226,99.081228
1920.218676,98.995793
1921.183125,98.939294
1922.147574,98.629383
1923.112024,98.5797
1924.076473,98.898482
1925.040923,98.953253
1926.005372,98.916432
1926.969821,98.918008
1927.934271,98.916692
1928.898720,98.938736
1929.863169,98.957088
1930.827619,99.010003
1931.792068,98.939934
1932.756517,98.864176
1933.720967,98.887072
1934.685416,98.917556
1935.649866,98.860982
1936.614315,98.897245
1937.578764,98.951749
1938.543214,99.005353
1939.507663,98.995665
1940.472112,99.028271
1941.436562,98.914318
1942.401011,98.619508
1943.365460,98.975419
1944.329910,99.102411
1945.294359,98.936908
1946.258808,98.986156
1947.223258,99.037383
1948.187707,99.088749
1949.152157,99.108059
1950.116606,99.132696
1951.081055,99.141081
1952.045505,99.217974
1953.009954,99.213368
1953.974403,99.204899
1954.938853,99.165673
1955.903302,99.266434
1956.867751,99.310915
1957.832201,99.311481
1958.796650,99.321948
1959.761100,99.354097
1960.725549,99.319007
1961.689998,99.325301
1962.654448,99.375176
1963.618897,99.43591
1964.583346,99.457635
1965.547796,99.408134
1966.512245,99.216133
1967.476694,99.196235
1968.441144,99.403581
1969.405593,99.462668
1970.370042,99.429482
1971.334492,99.431553
1972.298941,99.440801
1973.263391,99.527068
1974.227840,99.589804
1975.192289,99.582249
1976.156739,99.533891
1977.121188,99.543336
1978.085637,99.551482
1979.050087,99.559185
1980.014536,99.516849
1980.978985,99.464572
1981.943435,99.394627
1982.907884,99.372634
1983.872334,99.378872
1984.836783,99.412123
1985.801232,99.441705
1986.765682,99.449378
1987.730131,99.287565
1988.694580,99.261675
1989.659030,99.416764
1990.623479,99.445243
1991.587928,99.178373
1992.552378,99.130715
1993.516827,99.349401
1994.481276,99.39327
1995.445726,99.359163
1996.410175,99.302183
1997.374625,99.28707
1998.339074,99.219564
1999.303523,99.164993
2000.267973,99.180358
2001.232422,99.19415
2002.196871,99.248289
2003.161321,99.198799
2004.125770,99.137676
2005.090219,99.131439
2006.054669,99.152884
2007.019118,99.068736
2007.983568,99.01125
2008.948017,98.988215
2009.912466,98.981879
2010.876916,98.908088
2011.841365,98.819315
2012.805814,98.714737
2013.770264,98.648657
2014.734713,98.553718
2015.699162,98.304859
2016.663612,97.785491
2017.628061,97.790488
2018.592510,97.809016
2019.556960,97.949756
2020.521409,98.064441
2021.485859,98.044546
2022.450308,97.899575
2023.414757,97.802132
2024.379207,97.842889
2025.343656,97.85773
2026.308105,97.828587
2027.272555,97.897501
2028.237004,97.95236
2029.201453,97.933045
2030.165903,97.917087
2031.130352,97.901957
2032.094802,97.91916
2033.059251,97.973316
2034.023700,97.93005
2034.988150,97.937977
2035.952599,98.045072
2036.917048,98.060332
2037.881498,98.074432
2038.845947,98.158404
2039.810396,98.039703
2040.774846,97.704005
2041.739295,97.742037
2042.703744,98.138599
2043.668194,98.208873
2044.632643,98.231572
2045.597093,98.278714
2046.561542,98.361487
2047.525991,98.393191
2048.490441,98.440367
2049.454890,98.516511
2050.419339,98.670851
2051.383789,98.725591
2052.348238,98.690209
2053.312687,98.655622
2054.277137,98.75762
2055.241586,98.82253
2056.206036,98.868819
2057.170485,98.91246
2058.134934,98.931567
2059.099384,98.907482
2060.063833,98.901376
2061.028282,98.968186
2061.992732,99.072479
2062.957181,99.073842
2063.921630,98.870749
2064.886080,98.56994
2065.850529,98.884892
2066.814978,99.238432
2067.779428,99.381462
2068.743877,99.395038
2069.708327,99.422495
2070.672776,99.485769
2071.637225,99.57396
2072.601675,99.607614
2073.566124,99.597867
2074.530573,99.592509
2075.495023,99.687593
2076.459472,99.745615
2077.423921,99.731677
2078.388371,99.73705
2079.352820,99.853235
2080.317270,99.88614
2081.281719,99.951472
2082.246168,100.018653
2083.210618,100.098399
2084.175067,100.13666
2085.139516,100.21114
2086.103966,100.247703
2087.068415,100.300671
2088.032864,100.345848
2088.997314,100.335473
2089.961763,100.219815
2090.926212,100.426627
2091.890662,100.614439
2092.855111,100.65196
2093.819561,100.651598
2094.784010,100.724961
2095.748459,100.774145
2096.712909,100.798665
2097.677358,100.847126
2098.641807,100.918762
2099.606257,100.942675
2100.570706,101.003235
2101.535155,101.064705
2102.499605,101.129571
2103.464054,101.178349
2104.428504,101.209017
2105.392953,101.198038
2106.357402,101.217538
2107.321852,101.228156
2108.286301,101.302409
2109.250750,101.384725
2110.215200,101.400132
2111.179649,101.381079
2112.144098,101.455327
2113.108548,101.477188
2114.072997,101.510059
2115.037446,101.523185
2116.001896,101.637061
2116.966345,101.666035
2117.930795,101.639445
2118.895244,101.623834
2119.859693,101.753664
2120.824143,101.886749
2121.788592,101.891771
2122.753041,101.850496
2123.717491,101.856321
2124.681940,101.8781
2125.646389,101.889897
2126.610839,101.876528
2127.575288,101.934958
2128.539738,101.999151
2129.504187,102.024617
2130.468636,102.010394
2131.433086,102.056873
2132.397535,102.085992
2133.361984,102.101499
2134.326434,102.046156
2135.290883,101.968445
2136.255332,101.895633
2137.219782,101.956127
2138.184231,101.953386
2139.148680,101.943761
2140.113130,102.000886
2141.077579,102.031189
2142.042029,101.961603
2143.006478,101.956488
2143.970927,101.960712
2144.935377,101.951045
2145.899826,101.918666
2146.864275,101.930491
2147.828725,101.944533
2148.793174,101.943703
2149.757623,101.905868
2150.722073,101.864054
2151.686522,101.797892
2152.650972,101.808558
2153.615421,101.785105
2154.579870,101.776959
2155.544320,101.808878
2156.508769,101.840375
2157.473218,101.850307
2158.437668,101.830932
2159.402117,101.830621
2160.366566,101.873081
2161.331016,101.852679
2162.295465,101.829338
2163.259914,101.879308
2164.224364,101.952994
2165.188813,101.978317
2166.153263,102.045838
2167.117712,102.060106
2168.082161,101.976704
2169.046611,101.910084
2170.011060,101.938234
2170.975509,101.945039
2171.939959,101.948048
2172.904408,101.915154
2173.868857,101.968171
2174.833307,102.022847
2175.797756,102.001349
2176.762206,102.03191
2177.726655,102.120402
2178.691104,102.102317
2179.655554,102.106191
2180.620003,102.141727
2181.584452,102.153489
2182.548902,102.154964
2183.513351,102.19146
2184.477800,102.199548
2185.442250,102.230993
2186.406699,102.143903
2187.371148,102.148227
2188.335598,102.252968
2189.300047,102.239709
2190.264497,102.209529
2191.228946,102.240854
2192.193395,102.238337
2193.157845,102.235509
2194.122294,102.233883
2195.086743,102.242115
2196.051193,102.323934
2197.015642,102.403323
2197.980091,102.457287
2198.944541,102.446864
2199.908990,102.413282
2200.873440,102.482751
2201.837889,102.490903
2202.802338,102.485499
2203.766788,102.528581
2204.731237,102.600046
2205.695686,102.621046
2206.660136,102.638631
2207.624585,102.663989
2208.589034,102.700204
2209.553484,102.757548
2210.517933,102.783014
2211.482382,102.75932
2212.446832,102.810088
2213.411281,102.875082
2214.375731,102.914282
2215.340180,102.939341
2216.304629,102.965271
2217.269079,102.992184
2218.233528,102.92991
2219.197977,102.836176
2220.162427,102.847557
2221.126876,102.883927
2222.091325,102.887573
2223.055775,102.946424
2224.020224,103.021059
2224.984674,102.996833
2225.949123,102.971546
2226.913572,103.028517
2227.878022,103.065633
2228.842471,102.978331
2229.806920,102.922797
2230.771370,102.934419
2231.735819,102.970301
2232.700268,102.944384
2233.664718,102.898126
2234.629167,102.856606
2235.593616,102.836411
2236.558066,102.863515
2237.522515,102.835914
2238.486965,102.812063
2239.451414,102.837185
2240.415863,102.868861
2241.380313,102.790674
2242.344762,102.764931
2243.309211,102.738017
2244.273661,102.770869
2245.238110,102.716128
2246.202559,102.655623
2247.167009,102.595512
2248.131458,102.604234
2249.095908,102.603477
2250.060357,102.584386
2251.024806,102.52758
2251.989256,102.505666
2252.953705,102.51337
2253.918154,102.440829
2254.882604,102.492483
2255.847053,102.498239
2256.811502,102.522155
2257.775952,102.46734
2258.740401,102.435827
2259.704850,102.364186
2260.669300,102.362042
2261.633749,102.277433
2262.598199,102.253668
2263.562648,102.188475
2264.527097,102.198655
2265.491547,102.192317
2266.455996,102.112588
2267.420445,101.99221
2268.384895,102.016332
2269.349344,101.995514
2270.313793,102.019071
2271.278243,101.956157
2272.242692,101.949081
2273.207142,101.946777
2274.171591,101.965417
2275.136040,101.978527
2276.100490,102.026129
2277.064939,101.918967
2278.029388,101.88552
2278.993838,101.810014
2279.958287,101.811093
2280.922736,101.82865
2281.887186,101.741781
2282.851635,101.63038
2283.816084,101.583608
2284.780534,101.516806
2285.744983,101.507415
2286.709433,101.246827
2287.673882,101.157378
2288.638331,101.1044
2289.602781,101.144171
2290.567230,101.055237
2291.531679,100.871661
2292.496129,100.92975
2293.460578,100.690947
2294.425027,100.59491
2295.389477,100.483393
2296.353926,100.270077
2297.318376,100.353921
2298.282825,100.107222
2299.247274,100.299291
2300.211724,99.952007
2301.176173,100.130505
2302.140622,100.177059
2303.105072,100.285921
2304.069521,100.328162
2305.033970,100.255555
2305.998420,100.165057
2306.962869,99.812053
2307.927318,100.047816
2308.891768,99.754126
2309.856217,100.100701
2310.820667,100.067385
2311.785116,100.525734
2312.749565,100.811875
2313.714015,101.107129
2314.678464,101.135821
2315.642913,101.018188
2316.607363,101.21902
2317.571812,101.385779
2318.536261,101.878635
2319.500711,101.86005
2320.465160,102.238332
2321.429610,102.445364
2322.394059,102.969633
2323.358508,102.420462
2324.322958,102.305261
2325.287407,102.168028
2326.251856,102.314915
2327.216306,101.970762
2328.180755,102.320591
2329.145204,102.416041
2330.109654,103.436803
2331.074103,103.254187
2332.038552,103.237095
2333.003002,102.945378
2333.967451,103.103745
2334.931901,103.071506
2335.896350,102.733113
2336.860799,102.194811
2337.825249,102.967224
2338.789698,102.922002
2339.754147,102.885816
2340.718597,102.385201
2341.683046,102.180531
2342.647495,101.484557
2343.611945,101.713411
2344.576394,101.924237
2345.540844,102.106466
2346.505293,101.844596
2347.469742,101.240647
2348.434192,100.954302
2349.398641,100.650768
2350.363090,101.105205
2351.327540,102.427614
2352.291989,102.274175
2353.256438,102.635276
2354.220888,103.484676
2355.185337,103.874334
2356.149786,102.140001
2357.114236,102.093722
2358.078685,102.577718
2359.043135,103.54844
2360.007584,102.270668
2360.972033,102.855854
2361.936483,102.179949
2362.900932,102.529386
2363.865381,101.869205
2364.829831,102.451533
2365.794280,102.415563
2366.758729,102.761481
2367.723179,102.447345
2368.687628,102.715045
2369.652078,102.815415
2370.616527,102.990284
2371.580976,102.667949
2372.545426,102.579609
2373.509875,102.54478
2374.474324,102.508352
2375.438774,102.258849
2376.403223,101.999624
2377.367672,101.750824
2378.332122,101.590957
2379.296571,101.317768
2380.261020,101.173577
2381.225470,101.125388
2382.189919,101.174586
2383.154369,101.27133
2384.118818,101.42746
2385.083267,101.572293
2386.047717,101.760192
2387.012166,101.928181
2387.976615,101.991801
2388.941065,102.151003
2389.905514,102.232769
2390.869963,102.224869
2391.834413,102.262163
2392.798862,102.30755
2393.763312,102.348073
2394.727761,102.375623
2395.692210,102.402209
2396.656660,102.377643
2397.621109,102.360625
2398.585558,102.398173
2399.550008,102.450722
2400.514457,102.478761
2401.478906,102.529745
2402.443356,102.530508
2403.407805,102.564941
2404.372254,102.497479
2405.336704,102.440078
2406.301153,102.440091
2407.265603,102.499137
2408.230052,102.499448
2409.194501,102.498897
2410.158951,102.465874
2411.123400,102.488717
2412.087849,102.49619
2413.052299,102.529229
2414.016748,102.537131
2414.981197,102.596642
2415.945647,102.660963
2416.910096,102.65644
2417.874546,102.634432
2418.838995,102.690389
2419.803444,102.695437
2420.767894,102.677897
2421.732343,102.627485
2422.696792,102.661904
2423.661242,102.676594
2424.625691,102.755473
2425.590140,102.803896
2426.554590,102.854046
2427.519039,102.893998
2428.483488,102.890538
2429.447938,102.859366
2430.412387,102.896094
2431.376837,102.925862
2432.341286,102.987497
2433.305735,102.992129
2434.270185,103.005792
2435.234634,102.993572
2436.199083,102.992775
2437.163533,102.91829
2438.127982,102.871599
2439.092431,102.860815
2440.056881,102.890461
2441.021330,102.87014
2441.985780,102.835211
2442.950229,102.879957
2443.914678,102.964917
2444.879128,102.965552
2445.843577,102.946491
2446.808026,102.912899
2447.772476,102.856385
2448.736925,102.835345
2449.701374,102.842748
2450.665824,102.845138
2451.630273,102.8761
2452.594722,102.832222
2453.559172,102.820116
2454.523621,102.857127
2455.488071,102.873441
2456.452520,102.798135
2457.416969,102.760174
2458.381419,102.733318
2459.345868,102.789201
2460.310317,102.837489
2461.274767,102.839918
2462.239216,102.758924
2463.203665,102.758377
2464.168115,102.82048
2465.132564,102.869362
2466.097014,102.884259
2467.061463,102.866594
2468.025912,102.804987
2468.990362,102.784631
2469.954811,102.793297
2470.919260,102.801897
2471.883710,102.796527
2472.848159,102.761585
2473.812608,102.681167
2474.777058,102.674645
2475.741507,102.708234
2476.705956,102.767868
2477.670406,102.692639
2478.634855,102.574276
2479.599305,102.531012
2480.563754,102.522191
2481.528203,102.476881
2482.492653,102.435599
2483.457102,102.374738
2484.421551,102.3189
2485.386001,102.294019
2486.350450,102.311148
2487.314899,102.316682
2488.279349,102.334299
2489.243798,102.284574
2490.208248,102.225809
2491.172697,102.167865
2492.137146,102.174544
2493.101596,102.153489
2494.066045,102.12464
2495.030494,102.042536
2495.994944,102.02423
2496.959393,102.016216
2497.923842,102.013895
2498.888292,101.942074
2499.852741,101.882896
2500.817190,101.885086
2501.781640,101.883487
2502.746089,101.793319
2503.710539,101.801999
2504.674988,101.710591
2505.639437,101.59566
2506.603887,101.50193
2507.568336,101.46824
2508.532785,101.460378
2509.497235,101.401773
2510.461684,101.265807
2511.426133,101.196704
2512.390583,101.108277
2513.355032,101.05776
2514.319482,100.945781
2515.283931,100.828602
2516.248380,100.730288
2517.212830,100.686185
2518.177279,100.604269
2519.141728,100.562784
2520.106178,100.452978
2521.070627,100.338438
2522.035076,100.292811
2522.999526,100.272832
2523.963975,100.184613
2524.928424,100.139015
2525.892874,100.03209
2526.857323,99.880883
2527.821773,99.814352
2528.786222,99.792688
2529.750671,99.737455
2530.715121,99.675517
2531.679570,99.541023
2532.644019,99.538773
2533.608469,99.560169
2534.572918,99.541584
2535.537367,99.487196
2536.501817,99.530368
2537.466266,99.528872
2538.430716,99.457997
2539.395165,99.32986
2540.359614,99.318336
2541.324064,99.361016
2542.288513,99.431105
2543.252962,99.321848
2544.217412,99.247611
2545.181861,99.240743
2546.146310,99.259178
2547.110760,99.232898
2548.075209,99.236432
2549.039658,99.165253
2550.004108,99.073631
2550.968557,98.995707
2551.933007,99.033796
2552.897456,99.107721
2553.861905,99.095189
2554.826355,98.934087
2555.790804,98.882889
2556.755253,98.877818
2557.719703,98.864505
2558.684152,98.844503
2559.648601,98.826843
2560.613051,98.762178
2561.577500,98.673836
2562.541950,98.59128
2563.506399,98.548643
2564.470848,98.451337
2565.435298,98.392098
2566.399747,98.358109
2567.364196,98.233107
2568.328646,98.111487
2569.293095,98.074377
2570.257544,97.993447
2571.221994,97.949842
2572.186443,97.838558
2573.150892,97.703631
2574.115342,97.601717
2575.079791,97.586476
2576.044241,97.490189
2577.008690,97.363018
2577.973139,97.273837
2578.937589,97.22839
2579.902038,97.158056
2580.866487,97.056116
2581.830937,97.002274
2582.795386,97.005272
2583.759835,96.933965
2584.724285,96.870622
2585.688734,96.730631
2586.653184,96.629428
2587.617633,96.559882
2588.582082,96.528692
2589.546532,96.475058
2590.510981,96.392265
2591.475430,96.276271
2592.439880,96.205432
2593.404329,96.151817
2594.368778,96.19239
2595.333228,96.194701
2596.297677,96.125543
2597.262126,96.003125
2598.226576,95.954073
2599.191025,95.837322
2600.155475,95.732641
2601.119924,95.614367
2602.084373,95.497565
2603.048823,95.367445
2604.013272,95.281748
2604.977721,95.150232
2605.942171,95.109697
2606.906620,95.00163
2607.871069,94.865692
2608.835519,94.737688
2609.799968,94.664289
2610.764418,94.606063
2611.728867,94.55416
2612.693316,94.425029
2613.657766,94.261067
2614.622215,94.100081
2615.586664,94.042354
2616.551114,93.970934
2617.515563,93.900474
2618.480012,93.758872
2619.444462,93.633771
2620.408911,93.509549
2621.373360,93.394778
2622.337810,93.267125
2623.302259,93.162194
2624.266709,92.919272
2625.231158,92.704901
2626.195607,92.548691
2627.160057,92.468081
2628.124506,92.3163
2629.088955,92.165435
2630.053405,92.065677
2631.017854,91.926186
2631.982303,91.740807
2632.946753,91.597892
2633.911202,91.420181
2634.875652,91.269543
2635.840101,91.140845
2636.804550,91.014677
2637.769000,90.951173
2638.733449,90.936788
2639.697898,90.824271
2640.662348,90.720744
2641.626797,90.623113
2642.591246,90.598738
2643.555696,90.569148
2644.520145,90.423401
2645.484594,90.271481
2646.449044,90.242997
2647.413493,90.15277
2648.377943,90.080655
2649.342392,89.973913
2650.306841,89.791443
2651.271291,89.666325
2652.235740,89.553771
2653.200189,89.387829
2654.164639,89.270964
2655.129088,89.123195
2656.093537,88.883274
2657.057987,88.568702
2658.022436,88.373805
2658.986886,88.172464
2659.951335,87.963056
2660.915784,87.693351
2661.880234,87.433916
2662.844683,87.204107
2663.809132,87.047985
2664.773582,86.911574
2665.738031,86.757027
2666.702480,86.533674
2667.666930,86.376023
2668.631379,86.192267
2669.595828,85.991976
2670.560278,85.898809
2671.524727,85.85271
2672.489177,85.660016
2673.453626,85.565208
2674.418075,85.533986
2675.382525,85.451889
2676.346974,85.369402
2677.311423,85.315018
2678.275873,85.240025
2679.240322,85.200562
2680.204771,85.205912
2681.169221,85.373033
2682.133670,85.416236
2683.098120,85.486748
2684.062569,85.582237
2685.027018,85.657471
2685.991468,85.856094
2686.955917,86.127851
2687.920366,86.312642
2688.884816,86.48977
2689.849265,86.668557
2690.813714,86.856132
2691.778164,87.076443
2692.742613,87.388526
2693.707062,87.650214
2694.671512,87.914898
2695.635961,88.09265
2696.600411,88.255211
2697.564860,88.409374
2698.529309,88.549985
2699.493759,88.647375
2700.458208,88.728635
2701.422657,88.765852
2702.387107,88.865206
2703.351556,88.972635
2704.316005,89.025859
2705.280455,89.008861
2706.244904,88.990859
2707.209354,88.927951
2708.173803,88.816508
2709.138252,88.645916
2710.102702,88.562468
2711.067151,88.519485
2712.031600,88.389615
2712.996050,88.267706
2713.960499,88.205657
2714.924948,88.143655
2715.889398,88.080788
2716.853847,87.924147
2717.818296,87.797324
2718.782746,87.749269
2719.747195,87.708128
2720.711645,87.491165
2721.676094,87.307876
2722.640543,87.196351
2723.604993,87.038055
2724.569442,86.758797
2725.533891,86.520358
2726.498341,86.320255
2727.462790,86.196254
2728.427239,86.110702
2729.391689,86.010499
2730.356138,85.907262
2731.320588,85.920346
2732.285037,86.005023
2733.249486,86.130812
2734.213936,86.158657
2735.178385,86.299836
2736.142834,86.439412
2737.107284,86.541636
2738.071733,86.671996
2739.036182,86.875559
2740.000632,87.056394
2740.965081,87.074441
2741.929530,86.999302
2742.893980,87.017471
2743.858429,87.014618
2744.822879,87.014676
2745.787328,86.978583
2746.751777,86.957391
2747.716227,86.920402
2748.680676,86.868839
2749.645125,86.821525
2750.609575,86.829298
2751.574024,86.757363
2752.538473,86.767445
2753.502923,86.703234
2754.467372,86.597879
2755.431822,86.419249
2756.396271,86.340552
2757.360720,86.289616
2758.325170,86.20933
2759.289619,86.039006
2760.254068,85.958453
2761.218518,85.910359
2762.182967,85.770794
2763.147416,85.567434
2764.111866,85.394147
2765.076315,85.241906
2766.040764,85.051072
2767.005214,84.74952
2767.969663,84.502443
2768.934113,84.231002
2769.898562,84.022977
2770.863011,83.82818
2771.827461,83.540582
2772.791910,83.167827
2773.756359,82.852475
2774.720809,82.55389
2775.685258,82.290091
2776.649707,81.858925
2777.614157,81.350712
2778.578606,80.875294
2779.543056,80.425712
2780.507505,79.854709
2781.471954,79.330275
2782.436404,78.792156
2783.400853,78.255302
2784.365302,77.657064
2785.329752,77.115019
2786.294201,76.593541
2787.258650,75.950399
2788.223100,75.263146
2789.187549,74.686443
2790.151998,74.09479
2791.116448,73.518446
2792.080897,72.950667
2793.045347,72.43514
2794.009796,71.802256
2794.974245,71.08691
2795.938695,70.32072
2796.903144,69.598449
2797.867593,68.842424
2798.832043,68.153281
2799.796492,67.501277
2800.760941,66.793385
2801.725391,65.992891
2802.689840,65.181735
2803.654290,64.275058
2804.618739,63.413012
2805.583188,62.447626
2806.547638,61.485189
2807.512087,60.433179
2808.476536,59.378575
2809.440986,58.264183
2810.405435,57.202229
2811.369884,56.109115
2812.334334,54.948939
2813.298783,53.685527
2814.263232,52.400012
2815.227682,51.033206
2816.192131,49.650488
2817.156581,48.221883
2818.121030,46.780689
2819.085479,45.219573
2820.049929,43.708205
2821.014378,42.047308
2821.978827,40.317382
2822.943277,38.570483
2823.907726,36.84362
2824.872175,34.96787
2825.836625,33.101321
2826.801074,31.186838
2827.765524,29.226659
2828.729973,27.148022
2829.694422,25.107522
2830.658872,23.117814
2831.623321,21.251254
2832.587770,19.352865
2833.552220,17.59927
2834.516669,15.80258
2835.481118,14.076238
2836.445568,12.236957
2837.410017,10.502909
2838.374466,8.804574
2839.338916,7.188763
2840.303365,5.539629
2841.267815,4.053852
2842.232264,2.735474
2843.196713,1.650091
2844.161163,0.851424
2845.125612,0.38271
2846.090061,0.137069
2847.054511,0.332606
2848.018960,0.56675
2848.983409,0.640614
2849.947859,0.724539
2850.912308,0.689048
2851.876758,0.726291
2852.841207,0.685472
2853.805656,0.718522
2854.770106,0.70154
2855.734555,0.705612
2856.699004,0.616604
2857.663454,0.620918
2858.627903,0.600233
2859.592352,0.602975
2860.556802,0.521392
2861.521251,0.442614
2862.485700,0.287996
2863.450150,0.200108
2864.414599,0.12271
2865.379049,0.280376
2866.343498,0.473355
2867.307947,0.618632
2868.272397,0.794379
2869.236846,0.857151
2870.201295,0.904043
2871.165745,0.99671
2872.130194,1.173046
2873.094643,1.376381
2874.059093,1.713743
2875.023542,2.033429
2875.987992,2.44084
2876.952441,2.708043
2877.916890,2.959283
2878.881340,3.169346
2879.845789,3.342837
2880.810238,3.332834
2881.774688,3.315011
2882.739137,3.206373
2883.703586,3.089183
2884.668036,2.797404
2885.632485,2.554411
2886.596934,2.292932
2887.561384,2.080683
2888.525833,1.790983
2889.490283,1.576825
2890.454732,1.319866
2891.419181,1.071139
2892.383631,0.769932
2893.348080,0.618181
2894.312529,0.422758
2895.276979,0.294823
2896.241428,0.161659
2897.205877,0.145334
2898.170327,0.146762
2899.134776,0.194937
2900.099226,0.294681
2901.063675,0.378563
2902.028124,0.466302
2902.992574,0.447333
2903.957023,0.551859
2904.921472,0.645426
2905.885922,0.698013
2906.850371,0.664957
2907.814820,0.68444
2908.779270,0.666307
2909.743719,0.749111
2910.708168,0.748251
2911.672618,0.789794
2912.637067,0.794648
2913.601517,0.8542
2914.565966,0.842584
2915.530415,0.863492
2916.494865,0.859686
2917.459314,0.926176
2918.423763,0.98998
2919.388213,1.050779
2920.352662,0.952915
2921.317111,0.993131
2922.281561,0.982908
2923.246010,0.992123
2924.210460,0.970437
2925.174909,1.006881
2926.139358,0.939695
2927.103808,0.997094
2928.068257,0.997973
2929.032706,0.964132
2929.997156,0.938851
2930.961605,1.028191
2931.926054,1.016813
2932.890504,1.065885
2933.854953,1.0554
2934.819402,1.110818
2935.783852,1.088669
2936.748301,1.131956
2937.712751,1.092535
2938.677200,1.065033
2939.641649,1.021523
2940.606099,1.09803
2941.570548,1.064223
2942.534997,1.050676
2943.499447,0.939901
2944.463896,0.948908
2945.428345,0.941502
2946.392795,0.914238
2947.357244,0.808949
2948.321694,0.860966
2949.286143,0.804391
2950.250592,0.799309
2951.215042,0.71134
2952.179491,0.753043
2953.143940,0.835689
2954.108390,0.9437
2955.072839,0.910029
2956.037288,0.861175
2957.001738,0.79528
2957.966187,0.851536
2958.930636,0.855885
2959.895086,0.776155
2960.859535,0.545753
2961.823985,0.422135
2962.788434,0.237886
2963.752883,0.061979
2964.717333,0.244084
2965.681782,0.56873
2966.646231,1.068592
2967.610681,1.620293
2968.575130,2.321718
2969.539579,3.011713
2970.504029,3.968966
2971.468478,5.091175
2972.432928,6.314337
2973.397377,7.496484
2974.361826,8.780299
2975.326276,10.168738
2976.290725,11.681841
2977.255174,13.127202
2978.219624,14.661551
2979.184073,16.172709
2980.148522,17.789299
2981.112972,19.371152
2982.077421,20.874477
2983.041870,22.21024
2984.006320,23.609708
2984.970769,24.918517
2985.935219,26.104795
2986.899668,27.138458
2987.864117,28.029796
2988.828567,28.692917
2989.793016,29.162667
2990.757465,29.321114
2991.721915,29.228762
2992.686364,28.775479
2993.650813,28.051765
2994.615263,27.012895
2995.579712,25.797972
2996.544162,24.331947
2997.508611,22.736514
2998.473060,20.94363
2999.437510,19.307281
3000.401959,17.798588
3001.366408,16.370673
3002.330858,15.007091
3003.295307,13.944685
3004.259756,13.104532
3005.224206,12.541337
3006.188655,12.110068
3007.153104,11.971005
3008.117554,12.050865
3009.082003,12.475211
3010.046453,13.102682
3011.010902,14.094826
3011.975351,15.368095
3012.939801,17.050219
3013.904250,19.001255
3014.868699,21.331551
3015.833149,24.065868
3016.797598,27.016688
3017.762047,30.038436
3018.726497,33.32182
3019.690946,36.641909
3020.655396,40.02132
3021.619845,43.288562
3022.584294,46.537759
3023.548744,49.616473
3024.513193,52.444796
3025.477642,55.037628
3026.442092,57.53795
3027.406541,59.728785
3028.370990,61.769584
3029.335440,63.640049
3030.299889,65.229606
3031.264338,66.649836
3032.228788,68.212916
3033.193237,69.549958
3034.157687,70.724991
3035.122136,71.88129
3036.086585,72.87528
3037.051035,73.751833
3038.015484,74.558816
3038.979933,75.316147
3039.944383,76.011887
3040.908832,76.669978
3041.873281,77.267878
3042.837731,77.832334
3043.802180,78.435446
3044.766630,78.952776
3045.731079,79.462617
3046.695528,79.879634
3047.659978,80.204109
3048.624427,80.525335
3049.588876,81.048991
3050.553326,81.43866
3051.517775,81.762163
3052.482224,82.019599
3053.446674,82.256936
3054.411123,82.420148
3055.375572,82.498847
3056.340022,82.697856
3057.304471,83.12092
3058.268921,83.268871
3059.233370,83.307138
3060.197819,83.379807
3061.162269,83.467336
3062.126718,83.554411
3063.091167,83.597164
3064.055617,83.517266
3065.020066,83.749861
3065.984515,83.951552
3066.948965,84.188108
3067.913414,84.670495
3068.877864,85.081921
3069.842313,85.417237
3070.806762,85.925563
3071.771212,86.333722
3072.735661,86.783722
3073.700110,87.347677
3074.664560,87.91348
3075.629009,88.315428
3076.593458,88.672124
3077.557908,89.026015
3078.522357,89.405754
3079.486806,89.817353
3080.451256,90.28327
3081.415705,90.547005
3082.380155,90.807983
3083.344604,91.137062
3084.309053,91.398444
3085.273503,91.533674
3086.237952,91.692919
3087.202401,91.923562
3088.166851,92.178501
3089.131300,92.334177
3090.095749,92.503455
3091.060199,92.652955
3092.024648,92.795998
3092.989098,93.01048
3093.953547,93.294982
3094.917996,93.426049
3095.882446,93.54351
3096.846895,93.797587
3097.811344,93.874366
3098.775794,93.85073
3099.740243,94.051247
3100.704692,94.297128
3101.669142,94.554053
3102.633591,94.714222
3103.598040,94.843167
3104.562490,94.889991
3105.526939,94.925256
3106.491389,94.955061
3107.455838,95.009001
3108.420287,95.04251
3109.384737,95.186419
3110.349186,95.519877
3111.313635,95.74189
3112.278085,95.80766
3113.242534,95.843388
3114.206983,95.786041
3115.171433,95.729244
3116.135882,95.904903
3117.100332,96.272933
3118.064781,96.240233
3119.029230,96.241539
3119.993680,96.582617
3120.958129,96.760299
3121.922578,96.792097
3122.887028,97.023093
3123.851477,97.198498
3124.815926,97.085121
3125.780376,97.026605
3126.744825,97.101534
3127.709274,97.233842
3128.673724,97.306573
3129.638173,97.292546
3130.602623,97.398322
3131.567072,97.598808
3132.531521,97.552763
3133.495971,97.754872
3134.460420,97.97915
3135.424869,97.882629
3136.389319,97.821499
3137.353768,97.807112
3138.318217,97.804518
3139.282667,97.903013
3140.247116,98.116532
3141.211566,98.178166
3142.176015,98.121827
3143.140464,98.169196
3144.104914,98.421345
3145.069363,98.442873
3146.033812,98.335601
3146.998262,98.327183
3147.962711,98.322895
3148.927160,98.241499
3149.891610,98.260624
3150.856059,98.272256
3151.820508,98.24679
3152.784958,98.153905
3153.749407,98.215439
3154.713857,98.385622
3155.678306,98.55414
3156.642755,98.592387
3157.607205,98.580781
3158.571654,98.620883
3159.536103,98.721649
3160.500553,98.689193
3161.465002,98.643145
3162.429451,98.611086
3163.393901,98.685027
3164.358350,98.714567
3165.322800,98.693514
3166.287249,98.712985
3167.251698,98.702013
3168.216148,98.713267
3169.180597,98.645792
3170.145046,98.631892
3171.109496,98.703824
3172.073945,98.812515
3173.038394,98.844892
3174.002844,98.855429
3174.967293,98.850137
3175.931742,98.849898
3176.896192,98.898083
3177.860641,98.720591
3178.825091,98.775441
3179.789540,99.039154
3180.753989,99.09284
3181.718439,98.974199
3182.682888,98.959024
3183.647337,98.988798
3184.611787,98.970551
3185.576236,98.9779
3186.540685,99.013335
3187.505135,98.9464
3188.469584,98.956271
3189.434034,98.969027
3190.398483,99.070232
3191.362932,99.133382
3192.327382,99.196805
3193.291831,99.302287
3194.256280,99.38292
3195.220730,99.428398
3196.185179,99.442983
3197.149628,99.532218
3198.114078,99.651698
3199.078527,99.65825
3200.042976,99.559989
3201.007426,99.616167
3201.971875,99.680561
3202.936325,99.723217
3203.900774,99.672756
3204.865223,99.710067
3205.829673,99.801894
3206.794122,100.002276
3207.758571,100.162866
3208.723021,99.946005
3209.687470,99.790484
3210.651919,100.010781
3211.616369,100.173984
3212.580818,100.11897
3213.545268,99.998749
3214.509717,100.177117
3215.474166,100.48457
3216.438616,100.511656
3217.403065,100.459246
3218.367514,100.301646
3219.331964,100.228907
3220.296413,100.463081
3221.260862,100.747092
3222.225312,100.827195
3223.189761,100.836686
3224.154210,100.7703
3225.118660,100.736362
3226.083109,100.798446
3227.047559,100.694733
3228.012008,100.712189
3228.976457,100.716452
3229.940907,100.708458
3230.905356,100.823281
3231.869805,100.726825
3232.834255,100.711788
3233.798704,100.824245
3234.763153,100.986261
3235.727603,101.017701
3236.692052,101.014844
3237.656502,101.10021
3238.620951,101.170169
3239.585400,101.286603
3240.549850,101.437339
3241.514299,101.60534
3242.478748,101.515082
3243.443198,101.236364
3244.407647,101.007706
3245.372096,101.068223
3246.336546,101.254661
3247.300995,101.267983
3248.265444,101.317203
3249.229894,101.43399
3250.194343,101.53517
3251.158793,101.570091
3252.123242,101.575146
3253.087691,101.443446
3254.052141,101.160985
3255.016590,101.242197
3255.981039,101.346041
3256.945489,101.342115
3257.909938,101.361774
3258.874387,101.342579
3259.838837,101.257445
3260.803286,101.319697
3261.767736,101.59307
3262.732185,101.675431
3263.696634,101.525942
3264.661084,101.328148
3265.625533,101.354561
3266.589982,101.528642
3267.554432,101.682803
3268.518881,101.602937
3269.483330,101.37808
3270.447780,101.274702
3271.412229,101.255948
3272.376678,101.138049
3273.341128,100.961318
3274.305577,100.984306
3275.270027,101.037019
3276.234476,100.966893
3277.198925,101.308356
3278.163375,101.458361
3279.127824,101.149885
3280.092273,100.92467
3281.056723,100.937406
3282.021172,100.969007
3282.985621,100.890014
3283.950071,100.929147
3284.914520,101.072718
3285.878970,100.998172
3286.843419,100.904619
3287.807868,100.904082
3288.772318,100.972512
3289.736767,100.892946
3290.701216,100.784135
3291.665666,100.660631
3292.630115,100.568519
3293.594564,100.585151
3294.559014,100.570773
3295.523463,100.440932
3296.487912,100.47167
3297.452362,100.695374
3298.416811,100.906933
3299.381261,100.817708
3300.345710,100.789625
3301.310159,100.912631
3302.274609,100.895841
3303.239058,100.754324
3304.203507,100.781002
3305.167957,100.856358
3306.132406,100.767631
3307.096855,100.551079
3308.061305,100.440812
3309.025754,100.595335
3309.990204,101.057927
3310.954653,101.29464
3311.919102,101.299205
3312.883552,101.104749
3313.848001,101.201348
3314.812450,101.30374
3315.776900,101.188627
3316.741349,101.235632
3317.705798,101.219569
3318.670248,101.010218
3319.634697,101.15855
3320.599146,101.371247
3321.563596,101.339279
3322.528045,101.012539
3323.492495,100.788316
3324.456944,100.762166
3325.421393,100.882883
3326.385843,100.923994
3327.350292,101.059946
3328.314741,101.196448
3329.279191,101.156481
3330.243640,101.052745
3331.208089,101.133438
3332.172539,101.27687
3333.136988,101.245653
3334.101438,101.007707
3335.065887,100.971245
3336.030336,100.650413
3336.994786,100.464881
3337.959235,100.833303
3338.923684,100.886611
3339.888134,100.781285
3340.852583,100.558992
3341.817032,100.480602
3342.781482,100.714044
3343.745931,100.921757
3344.710380,101.010772
3345.674830,101.13472
3346.639279,101.257361
3347.603729,101.15114
3348.568178,101.069332
3349.532627,101.055447
3350.497077,100.972392
3351.461526,100.881263
3352.425975,100.839783
3353.390425,100.913395
3354.354874,101.021061
3355.319323,101.006714
3356.283773,101.097424
3357.248222,101.124863
3358.212672,101.023271
3359.177121,100.806048
3360.141570,100.621828
3361.106020,100.48305
3362.070469,100.605928
3363.034918,100.933992
3363.999368,100.83688
3364.963817,100.560473
3365.928266,100.501037
3366.892716,100.660317
3367.857165,100.600043
3368.821614,100.541271
3369.786064,100.70689
3370.750513,100.870426
3371.714963,100.980533
3372.679412,101.180993
3373.643861,101.274774
3374.608311,101.178073
3375.572760,101.309652
3376.537209,101.477723
3377.501659,101.323326
3378.466108,101.180211
3379.430557,101.053684
3380.395007,100.95491
3381.359456,101.06323
3382.323906,100.982618
3383.288355,101.005576
3384.252804,101.053938
3385.217254,100.953698
3386.181703,101.074088
3387.146152,101.138555
3388.110602,100.960504
3389.075051,100.857957
3390.039500,100.788709
3391.003950,100.804805
3391.968399,100.723705
3392.932848,100.690269
3393.897298,100.893232
3394.861747,101.03565
3395.826197,100.988088
3396.790646,100.696263
3397.755095,100.803547
3398.719545,101.000586
3399.683994,100.831208
3400.648443,100.664336
3401.612893,100.422427
3402.577342,100.48283
3403.541791,100.672371
3404.506241,100.813681
3405.470690,100.863548
3406.435140,100.761464
3407.399589,100.514861
3408.364038,100.410721
3409.328488,100.526555
3410.292937,100.520434
3411.257386,100.183349
3412.221836,99.97259
3413.186285,100.150567
3414.150734,100.52216
3415.115184,100.617494
3416.079633,100.608482
3417.044082,100.638924
3418.008532,100.48841
3418.972981,100.099291
3419.937431,99.47652
3420.901880,99.261019
3421.866329,99.578565
3422.830779,99.732077
3423.795228,99.720972
3424.759677,99.536018
3425.724127,99.320465
3426.688576,99.092347
3427.653025,98.952534
3428.617475,98.669745
3429.581924,98.468024
3430.546374,98.444484
3431.510823,98.54405
3432.475272,98.451004
3433.439722,98.222456
3434.404171,98.166477
3435.368620,98.134117
3436.333070,98.151541
3437.297519,98.101426
3438.261968,98.072325
3439.226418,97.917586
3440.190867,97.644455
3441.155316,97.382235
3442.119766,96.764116
3443.084215,96.753863
3444.048665,97.052368
3445.013114,96.545884
3445.977563,95.502754
3446.942013,94.590934
3447.906462,95.396779
3448.870911,95.854043
3449.835361,95.74214
3450.799810,95.575852
3451.764259,95.252404
3452.728709,95.026733
3453.693158,94.783076
3454.657608,94.543382
3455.622057,94.08843
3456.586506,93.589938
3457.550956,93.281456
3458.515405,92.796271
3459.479854,92.288003
3460.444304,92.047847
3461.408753,91.755854
3462.373202,91.22225
3463.337652,90.965464
3464.302101,90.661207
3465.266550,90.258436
3466.231000,89.759144
3467.195449,89.348283
3468.159899,89.545301
3469.124348,89.619624
3470.088797,89.577512
3471.053247,89.742862
3472.017696,89.86941
3472.982145,89.82283
3473.946595,89.692722
3474.911044,89.620347
3475.875493,90.004654
3476.839943,90.029582
3477.804392,89.665489
3478.768842,89.452504
3479.733291,89.476698
3480.697740,89.555915
3481.662190,89.712958
3482.626639,90.025795
3483.591088,90.475754
3484.555538,90.673857
3485.519987,90.712424
3486.484436,90.604195
3487.448886,90.500548
3488.413335,90.920504
3489.377784,91.717758
3490.342234,91.765375
3491.306683,91.751462
3492.271133,92.16625
3493.235582,92.467655
3494.200031,92.25852
3495.164481,91.996418
3496.128930,91.939488
3497.093379,92.338361
3498.057829,92.772914
3499.022278,92.68644
3499.986727,92.402506
3500.951177,91.896005
3501.915626,90.878099
3502.880076,90.655003
3503.844525,91.6682
3504.808974,92.487677
3505.773424,92.937516
3506.737873,93.195551
3507.702322,92.870878
3508.666772,91.714809
3509.631221,91.436682
3510.595670,92.392839
3511.560120,92.584518
3512.524569,92.887631
3513.489018,93.06311
3514.453468,93.292935
3515.417917,93.403709
3516.382367,93.230951
3517.346816,93.031885
3518.311265,93.053775
3519.275715,93.417067
3520.240164,93.776704
3521.204613,93.198268
3522.169063,91.736786
3523.133512,90.882026
3524.097961,91.920468
3525.062411,92.702586
3526.026860,92.620176
3526.991310,91.997271
3527.955759,92.303608
3528.920208,92.816215
3529.884658,93.175577
3530.849107,93.282849
3531.813556,93.734901
3532.778006,94.073847
3533.742455,93.999056
3534.706904,93.543204
3535.671354,92.59433
3536.635803,92.691382
3537.600252,93.910016
3538.564702,94.120547
3539.529151,94.326828
3540.493601,94.406149
3541.458050,94.579775
3542.422499,94.319757
3543.386949,94.095655
3544.351398,93.756194
3545.315847,94.158275
3546.280297,94.869876
3547.244746,95.092494
3548.209195,95.648835
3549.173645,95.851762
3550.138094,95.839676
3551.102544,95.721621
3552.066993,95.717991
3553.031442,96.431387
3553.995892,96.678696
3554.960341,96.950083
3555.924790,97.024815
3556.889240,97.080744
3557.853689,97.372002
3558.818138,97.471009
3559.782588,97.409296
3560.747037,97.866473
3561.711486,98.176605
3562.675936,98.337444
3563.640385,98.714419
3564.604835,98.971428
3565.569284,98.300284
3566.533733,98.501622
3567.498183,99.446579
3568.462632,99.989627
3569.427081,100.655196
3570.391531,100.05639
3571.355980,100.315391
3572.320429,100.563391
3573.284879,100.614995
3574.249328,100.788864
3575.213778,101.180087
3576.178227,101.373347
3577.142676,101.50716
3578.107126,102.092228
3579.071575,101.816031
3580.036024,101.766758
3581.000474,102.36361
3581.964923,102.662975
3582.929372,102.64896
3583.893822,103.043453
3584.858271,103.3083
3585.822720,102.51379
3586.787170,102.437568
3587.751619,103.688293
3588.716069,104.147145
3589.680518,105.282697
3590.644967,104.876297
3591.609417,104.323329
3592.573866,103.656512
3593.538315,104.079077
3594.502765,104.303525
3595.467214,104.104338
3596.431663,105.727852
3597.396113,105.274442
3598.360562,104.258084
3599.325012,104.682772
3600.289461,104.584187
3601.253910,105.012088
3602.218360,105.51176
3603.182809,105.457215
3604.147258,105.815074
3605.111708,105.80493
3606.076157,105.329047
3607.040606,105.441363
3608.005056,106.850361
3608.969505,105.689546
3609.933954,107.085997
3610.898404,107.752138
3611.862853,105.975776
3612.827303,105.92198
3613.791752,106.738513
3614.756201,106.14023
3615.720651,107.393915
3616.685100,107.097772
3617.649549,106.224621
3618.613999,106.964491
3619.578448,106.731775
3620.542897,107.079938
3621.507347,107.094764
3622.471796,106.9354
3623.436246,106.981769
3624.400695,107.114415
3625.365144,106.961652
3626.329594,107.349313
3627.294043,108.408221
3628.258492,107.346697
3629.222942,107.359213
3630.187391,109.175452
3631.151840,108.741845
3632.116290,108.212448
3633.080739,107.524407
3634.045188,107.774202
3635.009638,108.590957
3635.974087,108.564017
3636.938537,108.369529
3637.902986,108.274892
3638.867435,108.602448
3639.831885,108.641741
3640.796334,108.647088
3641.760783,108.482737
3642.725233,108.991014
3643.689682,109.984822
3644.654131,110.25639
3645.618581,110.403161
3646.583030,109.337471
3647.547480,110.896912
3648.511929,112.252422
3649.476378,109.520429
3650.440828,110.036555
3651.405277,111.575312
3652.369726,111.574135
3653.334176,110.577159
3654.298625,110.284512
3655.263074,109.148283
3656.227524,108.505616
3657.191973,111.093153
3658.156422,110.728399
3659.120872,109.494644
3660.085321,109.356915
3661.049771,110.01989
3662.014220,110.353942
3662.978669,110.417639
3663.943119,110.478107
3664.907568,110.4971
3665.872017,110.638612
3666.836467,110.9987
3667.800916,111.137791
3668.765365,111.067293
3669.729815,111.548902
3670.694264,111.080178
3671.658714,113.231737
3672.623163,113.227028
3673.587612,112.036249
3674.552062,109.40533
3675.516511,109.495469
3676.480960,113.31773
3677.445410,112.81355
3678.409859,111.430757
3679.374308,110.610517
3680.338758,111.141718
3681.303207,111.373064
3682.267656,111.116198
3683.232106,111.08028
3684.196555,110.997751
3685.161005,111.21425
3686.125454,111.466802
3687.089903,111.058194
3688.054353,109.922747
3689.018802,113.280646
3689.983251,113.76024
3690.947701,111.028754
3691.912150,112.049068
3692.876599,112.07888
3693.841049,111.411244
3694.805498,111.339854
3695.769948,111.068372
3696.734397,111.096921
3697.698846,111.607968
3698.663296,111.704382
3699.627745,111.828347
3700.592194,111.805364
3701.556644,111.385788
3702.521093,112.707421
3703.485542,113.23389
3704.449992,112.195006
3705.414441,111.934773
3706.378890,112.103812
3707.343340,112.99166
3708.307789,113.248725
3709.272239,113.255404
3710.236688,115.529447
3711.201137,114.304335
3712.165587,112.972069
3713.130036,115.298741
3714.094485,113.949407
3715.058935,112.817854
3716.023384,112.952399
3716.987833,112.911
3717.952283,112.520837
3718.916732,112.203802
3719.881182,113.242024
3720.845631,113.314659
3721.810080,111.871272
3722.774530,112.344967
3723.738979,113.316282
3724.703428,112.411655
3725.667878,112.179421
3726.632327,112.19077
3727.596776,112.677746
3728.561226,112.821919
3729.525675,112.712593
3730.490124,112.778728
3731.454574,112.569226
3732.419023,113.754699
3733.383473,115.544985
3734.347922,112.169265
3735.312371,110.483559
3736.276821,112.947247
3737.241270,113.594393
3738.205719,113.284277
3739.170169,113.37953
3740.134618,113.012966
3741.099067,112.658542
3742.063517,114.700151
3743.027966,115.120609
3743.992416,112.299097
3744.956865,113.613455
3745.921314,116.978282
3746.885764,115.978746
3747.850213,115.921706
3748.814662,115.20741
3749.779112,115.981397
3750.743561,117.780646
3751.708010,114.464466
3752.672460,116.056116
3753.636909,116.214666
3754.601358,114.359425
3755.565808,113.191088
3756.530257,112.98584
3757.494707,114.259387
3758.459156,113.694426
3759.423605,112.632201
3760.388055,114.129857
3761.352504,114.07925
3762.316953,113.385268
3763.281403,113.584162
3764.245852,113.821342
3765.210301,113.318313
3766.174751,113.711693
3767.139200,114.476563
3768.103650,114.188398
3769.068099,113.720569
3770.032548,113.677162
3770.996998,114.60282
3771.961447,114.166947
3772.925896,113.932992
3773.890346,113.843377
3774.854795,113.839393
3775.819244,113.849872
3776.783694,113.983576
3777.748143,114.088073
3778.712592,113.409829
3779.677042,113.340602
3780.641491,114.892016
3781.605941,114.414946
3782.570390,113.962127
3783.534839,113.602659
3784.499289,112.955938
3785.463738,113.826712
3786.428187,114.301036
3787.392637,114.022363
3788.357086,113.827174
3789.321535,113.718131
3790.285985,113.772714
3791.250434,113.892718
3792.214884,113.891649
3793.179333,113.985109
3794.143782,114.2246
3795.108232,114.212573
3796.072681,113.766672
3797.037130,114.232303
3798.001580,115.000544
3798.966029,114.97
3799.930478,114.83637
3800.894928,113.676429
3801.859377,114.602687
3802.823826,115.603252
3803.788276,115.120502
3804.752725,114.736708
3805.717175,113.965897
3806.681624,113.105569
3807.646073,114.828531
3808.610523,115.148386
3809.574972,113.948932
3810.539421,113.678535
3811.503871,113.638242
3812.468320,113.828935
3813.432769,114.353132
3814.397219,114.767581
3815.361668,113.531184
3816.326118,113.692878
3817.290567,116.218865
3818.255016,115.151658
3819.219466,114.228837
3820.183915,113.2898
3821.148364,112.758002
3822.112814,115.281016
3823.077263,114.630146
3824.041712,113.627473
3825.006162,113.63684
3825.970611,113.144011
3826.935060,112.889436
3827.899510,113.590019
3828.863959,113.749521
3829.828409,113.808695
3830.792858,113.504156
3831.757307,113.527623
3832.721757,115.24931
3833.686206,114.406804
3834.650655,113.185426
3835.615105,114.942992
3836.579554,115.34904
3837.544003,112.707648
3838.508453,114.521851
3839.472902,114.237852
3840.437352,112.804195
3841.401801,114.147248
3842.366250,113.988613
3843.330700,112.383005
3844.295149,112.901737
3845.259598,113.396885
3846.224048,112.825362
3847.188497,112.798949
3848.152946,113.175212
3849.117396,113.032204
3850.081845,114.16834
3851.046294,114.848155
3852.010744,113.993222
3852.975193,115.312396
3853.939643,115.580407
3854.904092,118.625509
3855.868541,116.910136
3856.832991,113.35465
3857.797440,113.423413
3858.761889,114.335378
3859.726339,113.946876
3860.690788,113.614928
3861.655237,113.288554
3862.619687,114.705072
3863.584136,113.61572
3864.548586,110.695369
3865.513035,112.930434
3866.477484,115.020143
3867.441934,114.809495
3868.406383,113.644606
3869.370832,110.11321
3870.335282,112.343054
3871.299731,115.50104
3872.264180,115.576185
3873.228630,113.360535
3874.193079,111.836188
3875.157528,114.742552
3876.121978,114.612407
3877.086427,114.062223
3878.050877,114.448052
3879.015326,113.52151
3879.979775,110.600689
3880.944225,113.104461
3881.908674,115.144573
3882.873123,113.734327
3883.837573,113.202213
3884.802022,112.11272
3885.766471,110.914246
3886.730921,114.232729
3887.695370,114.211204
3888.659820,113.75
3889.624269,113.788475
3890.588718,112.145901
3891.553168,111.920192
3892.517617,114.500665
3893.482066,113.724832
3894.446516,113.029399
3895.410965,113.266212
3896.375414,113.18117
3897.339864,112.644033
3898.304313,111.61654
3899.268762,112.151351
3900.233212,114.685194
3901.197661,112.794165
3902.162111,111.558096
3903.126560,113.566058
3904.091009,111.969107
3905.055459,112.972654
3906.019908,112.863198
3906.984357,113.034178
3907.948807,112.971698
3908.913256,112.770553
3909.877705,112.811488
3910.842155,112.694886
3911.806604,112.420906
3912.771054,112.475
3913.735503,112.736114
3914.699952,112.935004
3915.664402,112.560517
3916.628851,111.834098
3917.593300,112.7823
3918.557750,113.338597
3919.522199,112.073263
3920.486648,112.193121
3921.451098,113.124881
3922.415547,112.592702
3923.379996,111.637035
3924.344446,110.874028
3925.308895,112.079543
3926.273345,112.840436
3927.237794,112.59928
3928.202243,112.104444
3929.166693,111.912302
3930.131142,112.040031
3931.095591,112.042348
3932.060041,111.599694
3933.024490,112.159605
3933.988939,112.35772
3934.953389,112.087052
3935.917838,112.143693
3936.882288,112.050323
3937.846737,111.712059
3938.811186,111.651286
3939.775636,111.972917
3940.740085,111.976723
3941.704534,111.547538
3942.668984,110.922974
3943.633433,111.728451
3944.597882,111.963595
3945.562332,111.771539
3946.526781,111.160008
3947.491230,110.609715
3948.455680,111.334583
3949.420129,111.423544
3950.384579,111.258162
3951.349028,111.697659
3952.313477,111.28911
3953.277927,111.121376
3954.242376,111.385434
3955.206825,111.160249
3956.171275,110.869035
3957.135724,110.959764
3958.100173,111.208461
3959.064623,111.500647
3960.029072,111.412536
3960.993522,110.858066
3961.957971,110.394231
3962.922420,110.972636
3963.886870,111.292875
3964.851319,111.385404
3965.815768,111.488125
3966.780218,111.426582
3967.744667,111.118601
3968.709116,110.516166
3969.673566,110.776178
3970.638015,111.270378
3971.602464,110.648535
3972.566914,110.421712
3973.531363,110.719933
3974.495813,110.519867
3975.460262,110.481219
3976.424711,110.992745
3977.389161,111.368639
3978.353610,111.158776
3979.318059,111.128621
3980.282509,111.293667
3981.246958,111.152106
3982.211407,110.890534
3983.175857,110.913306
3984.140306,111.054807
3985.104756,111.001975
3986.069205,111.243739
3987.033654,111.468209
3987.998104,111.435543
3988.962553,111.036671
3989.927002,110.492363
3990.891452,110.444986
3991.855901,110.942538
3992.820350,111.04918
3993.784800,110.904611
3994.749249,110.662383
3995.713698,110.473652
3996.678148,110.448355
3997.642597,110.61971
3998.607047,110.710734
3999.571496,110.751426
4000.535945,110.871584
