Wavenumber,Percent Transmittance
399.282035,89.829067
400.246484,93.150347
401.210934,105.785347
402.175383,107.78477
403.139832,104.549047
404.104282,106.293357
405.068731,107.695283
406.033181,98.672571
406.997630,91.323426
407.962079,92.381193
408.926529,95.826437
409.890978,94.625146
410.855427,96.757699
411.819877,100.070002
412.784326,99.816134
413.748775,98.066281
414.713225,96.972508
415.677674,97.416363
416.642124,94.875033
417.606573,85.779782
418.571022,73.359269
419.535472,87.64545
420.499921,97.151055
421.464370,97.57109
422.428820,94.323568
423.393269,90.582805
424.357718,93.381903
425.322168,98.70767
426.286617,96.491637
427.251066,93.96006
428.215516,92.462705
429.179965,90.413513
430.144415,90.323362
431.108864,89.478143
432.073313,91.548599
433.037763,94.470519
434.002212,94.072108
434.966661,94.162549
435.931111,95.985339
436.895560,96.799342
437.860009,97.977235
438.824459,99.952571
439.788908,99.42797
440.753358,99.053626
441.717807,94.842735
442.682256,91.48161
443.646706,92.347744
444.611155,94.962406
445.575604,95.454239
446.540054,95.414501
447.504503,94.496508
448.468952,93.807566
449.433402,93.67334
450.397851,96.102607
451.362300,97.007936
452.326750,95.990049
453.291199,94.521781
454.255649,94.080325
455.220098,93.301501
456.184547,93.974074
457.148997,92.708137
458.113446,92.203371
459.077895,93.075332
460.042345,92.96457
461.006794,92.284473
461.971243,93.59726
462.935693,94.790021
463.900142,94.008558
464.864592,93.538225
465.829041,94.034518
466.793490,93.501092
467.757940,93.112214
468.722389,92.494315
469.686838,91.482292
470.651288,91.306612
471.615737,92.440522
472.580186,94.300542
473.544636,94.36644
474.509085,93.996337
475.473534,93.117458
476.437984,92.599456
477.402433,93.345892
478.366883,93.791673
479.331332,93.828393
480.295781,94.861034
481.260231,95.448844
482.224680,95.096267
483.189129,93.823989
484.153579,93.531951
485.118028,93.964232
486.082477,93.633544
487.046927,93.894477
488.011376,94.558635
488.975826,94.785672
489.940275,94.839656
490.904724,94.949957
491.869174,94.764143
492.833623,95.432356
493.798072,95.931022
494.762522,95.964243
495.726971,96.370279
496.691420,96.317113
497.655870,95.628835
498.620319,95.777121
499.584768,96.114624
500.549218,96.571916
501.513667,96.348027
502.478117,95.398549
503.442566,94.747817
504.407015,94.362598
505.371465,94.693308
506.335914,95.168064
507.300363,95.144529
508.264813,95.168277
509.229262,95.062281
510.193711,95.397567
511.158161,95.553923
512.122610,95.438227
513.087060,95.621274
514.051509,95.275309
515.015958,94.959239
515.980408,95.2399
516.944857,94.19126
517.909306,94.431053
518.873756,95.324749
519.838205,95.148434
520.802654,95.412135
521.767104,96.135665
522.731553,96.007869
523.696002,96.059813
524.660452,96.10261
525.624901,95.862449
526.589351,95.826296
527.553800,95.196918
528.518249,95.397726
529.482699,96.07039
530.447148,95.994922
531.411597,96.291035
532.376047,96.076323
533.340496,96.041814
534.304945,95.982271
535.269395,95.616117
536.233844,95.272081
537.198294,96.02922
538.162743,96.171212
539.127192,96.436532
540.091642,96.377687
541.056091,96.271977
542.020540,96.078647
542.984990,95.357628
543.949439,95.222847
544.913888,95.830435
545.878338,96.14771
546.842787,96.028234
547.807236,95.430737
548.771686,95.765679
549.736135,96.234205
550.700585,95.517634
551.665034,95.288946
552.629483,95.901648
553.593933,95.839752
554.558382,95.640383
555.522831,95.41622
556.487281,94.47306
557.451730,94.323991
558.416179,94.357607
559.380629,94.348887
560.345078,95.088351
561.309528,95.453121
562.273977,95.400308
563.238426,95.433615
564.202876,94.87671
565.167325,94.101271
566.131774,93.974127
567.096224,93.977832
568.060673,94.268997
569.025122,93.685529
569.989572,92.988336
570.954021,92.425512
571.918470,92.022089
572.882920,92.117302
573.847369,91.846286
574.811819,91.991898
575.776268,92.309049
576.740717,91.527187
577.705167,90.695053
578.669616,90.208712
579.634065,90.488489
580.598515,90.759244
581.562964,90.963554
582.527413,90.87518
583.491863,90.829036
584.456312,90.647087
585.420762,90.270582
586.385211,89.984392
587.349660,90.191158
588.314110,90.651737
589.278559,90.893048
590.243008,90.463742
591.207458,90.371577
592.171907,90.69993
593.136356,91.027856
594.100806,90.778695
595.065255,90.70988
596.029704,90.447056
596.994154,90.528775
597.958603,90.739804
598.923053,91.390064
599.887502,91.417649
600.851951,90.922178
601.816401,90.474303
602.780850,90.630009
603.745299,90.962079
604.709749,91.009478
605.674198,91.044425
606.638647,91.293117
607.603097,91.421417
608.567546,91.413136
609.531996,91.4582
610.496445,91.621821
611.460894,91.721846
612.425344,91.766545
613.389793,91.900403
614.354242,92.047138
615.318692,92.169476
616.283141,92.175688
617.247590,92.267679
618.212040,92.710975
619.176489,92.963935
620.140938,92.75474
621.105388,92.717236
622.069837,92.817225
623.034287,92.97207
623.998736,93.103246
624.963185,93.104046
625.927635,93.090564
626.892084,92.974178
627.856533,92.719028
628.820983,92.64128
629.785432,92.914743
630.749881,93.13567
631.714331,93.145957
632.678780,93.068727
633.643230,93.064609
634.607679,93.098935
635.572128,93.097481
636.536578,93.015167
637.501027,92.980471
638.465476,92.803793
639.429926,92.727694
640.394375,92.860033
641.358824,92.874507
642.323274,92.329227
643.287723,92.110757
644.252172,91.950956
645.216622,91.948653
646.181071,91.810303
647.145521,91.528947
648.109970,91.424329
649.074419,91.158525
650.038869,90.915942
651.003318,90.861627
651.967767,90.75367
652.932217,90.559357
653.896666,90.275159
654.861115,90.090256
655.825565,89.897652
656.790014,89.703475
657.754464,89.463243
658.718913,89.161836
659.683362,88.976649
660.647812,88.734196
661.612261,88.422814
662.576710,88.251471
663.541160,88.019797
664.505609,87.678829
665.470058,87.287122
666.434508,87.101361
667.398957,88.555651
668.363406,85.893418
669.327856,84.558219
670.292305,84.676188
671.256755,84.369944
672.221204,83.889133
673.185653,83.384745
674.150103,82.873706
675.114552,82.260943
676.079001,81.72976
677.043451,81.18113
678.007900,80.665393
678.972349,80.205372
679.936799,79.679994
680.901248,79.072233
681.865698,78.428221
682.830147,77.722301
683.794596,77.251829
684.759046,76.853544
685.723495,76.325614
686.687944,75.706756
687.652394,75.327529
688.616843,75.001162
689.581292,74.577912
690.545742,74.25484
691.510191,74.014104
692.474640,73.647315
693.439090,73.208291
694.403539,72.865624
695.367989,72.615439
696.332438,72.248006
697.296887,71.808045
698.261337,71.436039
699.225786,71.187757
700.190235,70.915551
701.154685,70.800647
702.119134,70.701339
703.083583,70.257359
704.048033,69.697864
705.012482,69.251026
705.976932,68.908646
706.941381,68.53629
707.905830,68.050717
708.870280,67.550118
709.834729,66.901248
710.799178,66.243036
711.763628,65.438463
712.728077,64.648192
713.692526,63.919732
714.656976,63.370381
715.621425,62.511067
716.585874,61.656175
717.550324,60.739744
718.514773,59.633046
719.479223,58.386959
720.443672,57.261236
721.408121,56.526936
722.372571,56.224476
723.337020,56.220877
724.301469,56.73151
725.265919,57.501269
726.230368,58.315124
727.194817,59.236997
728.159267,60.393257
729.123716,61.469654
730.088166,62.502731
731.052615,63.444497
732.017064,64.465199
732.981514,65.582235
733.945963,66.734952
734.910412,67.739319
735.874862,68.872693
736.839311,70.109353
737.803760,71.275195
738.768210,72.375887
739.732659,73.484859
740.697108,74.315417
741.661558,75.206142
742.626007,76.090129
743.590457,77.098394
744.554906,78.11032
745.519355,78.930368
746.483805,79.594286
747.448254,80.374646
748.412703,81.257992
749.377153,82.007754
750.341602,82.627047
751.306051,83.351418
752.270501,84.028441
753.234950,84.499307
754.199400,84.930334
755.163849,85.324465
756.128298,85.523487
757.092748,85.650891
758.057197,85.812885
759.021646,86.136032
759.986096,86.352913
760.950545,86.652472
761.914994,86.880972
762.879444,87.036749
763.843893,87.135832
764.808342,87.242825
765.772792,87.372686
766.737241,87.792343
767.701691,88.305508
768.666140,88.687505
769.630589,88.758823
770.595039,88.988002
771.559488,89.404791
772.523937,89.710876
773.488387,89.988487
774.452836,90.3426
775.417285,90.609358
776.381735,90.906517
777.346184,91.222021
778.310634,91.46785
779.275083,91.782783
780.239532,92.05023
781.203982,91.995854
782.168431,91.947892
783.132880,92.049369
784.097330,92.265007
785.061779,92.468444
786.026228,92.540642
786.990678,92.713243
787.955127,93.024238
788.919576,93.012669
789.884026,92.995171
790.848475,93.109799
791.812925,93.118542
792.777374,93.087977
793.741823,93.208119
794.706273,93.226091
795.670722,93.347717
796.635171,93.572007
797.599621,93.658177
798.564070,93.757296
799.528519,93.933168
800.492969,94.041533
801.457418,94.182296
802.421868,94.183207
803.386317,94.1295
804.350766,94.246021
805.315216,94.148458
806.279665,93.969015
807.244114,94.094303
808.208564,94.065256
809.173013,93.914261
810.137462,93.83414
811.101912,93.868643
812.066361,93.731456
813.030810,93.506084
813.995260,93.331509
814.959709,93.370452
815.924159,93.340008
816.888608,93.328589
817.853057,93.400743
818.817507,93.33395
819.781956,93.194467
820.746405,93.068909
821.710855,92.794698
822.675304,92.551651
823.639753,92.317822
824.604203,92.128274
825.568652,92.045644
826.533102,92.038748
827.497551,91.941177
828.462000,91.784301
829.426450,91.521479
830.390899,91.389417
831.355348,91.249405
832.319798,91.151449
833.284247,90.992093
834.248696,91.032
835.213146,90.974918
836.177595,90.850103
837.142044,90.685573
838.106494,90.515679
839.070943,90.321226
840.035393,89.980388
840.999842,89.605734
841.964291,89.475399
842.928741,89.418368
843.893190,89.214332
844.857639,88.969566
845.822089,88.880012
846.786538,88.814843
847.750987,88.803505
848.715437,88.712936
849.679886,88.863302
850.644336,88.839789
851.608785,88.61123
852.573234,88.329897
853.537684,88.301375
854.502133,88.330902
855.466582,88.486842
856.431032,88.468234
857.395481,88.312819
858.359930,88.218922
859.324380,88.318652
860.288829,88.237483
861.253278,88.100969
862.217728,87.974322
863.182177,87.980343
864.146627,87.978059
865.111076,87.886462
866.075525,87.827369
867.039975,87.798028
868.004424,87.640499
868.968873,87.72506
869.933323,87.807166
870.897772,87.735942
871.862221,87.801885
872.826671,87.937235
873.791120,87.998174
874.755570,88.037993
875.720019,88.069601
876.684468,88.164985
877.648918,88.276247
878.613367,88.364966
879.577816,88.285081
880.542266,88.132478
881.506715,88.137099
882.471164,88.245825
883.435614,88.220223
884.400063,88.139847
885.364512,88.048946
886.328962,88.052348
887.293411,87.81291
888.257861,87.697327
889.222310,87.694082
890.186759,87.720815
891.151209,87.795843
892.115658,87.749021
893.080107,87.697069
894.044557,87.69162
895.009006,87.614405
895.973455,87.635594
896.937905,87.640471
897.902354,87.648284
898.866804,87.585876
899.831253,87.437715
900.795702,87.174964
901.760152,87.056564
902.724601,86.994538
903.689050,86.955065
904.653500,86.852522
905.617949,86.699524
906.582398,86.500678
907.546848,86.377138
908.511297,86.21178
909.475746,86.057553
910.440196,85.904875
911.404645,85.711292
912.369095,85.619087
913.333544,85.646547
914.297993,85.581875
915.262443,85.551719
916.226892,85.500861
917.191341,85.562303
918.155791,85.76381
919.120240,85.917333
920.084689,86.020425
921.049139,86.174014
922.013588,86.242577
922.978038,86.388812
923.942487,86.555005
924.906936,86.60192
925.871386,86.656262
926.835835,86.674476
927.800284,86.608645
928.764734,86.662624
929.729183,86.562566
930.693632,86.398457
931.658082,86.282942
932.622531,86.153347
933.586980,85.886494
934.551430,85.744446
935.515879,85.487252
936.480329,85.195511
937.444778,84.975378
938.409227,84.70295
939.373677,84.476071
940.338126,84.384466
941.302575,84.213921
942.267025,84.078086
943.231474,83.918608
944.195923,83.757619
945.160373,83.568017
946.124822,83.344914
947.089272,83.18144
948.053721,83.037937
949.018170,82.795648
949.982620,82.677234
950.947069,82.602663
951.911518,82.557944
952.875968,82.48829
953.840417,82.383898
954.804866,82.117937
955.769316,81.937803
956.733765,81.685156
957.698214,81.419032
958.662664,81.14727
959.627113,80.842315
960.591563,80.557995
961.556012,80.314472
962.520461,79.998751
963.484911,79.799227
964.449360,79.702095
965.413809,79.594702
966.378259,79.451856
967.342708,79.449753
968.307157,79.482087
969.271607,79.51663
970.236056,79.578861
971.200506,79.772474
972.164955,80.031295
973.129404,80.265957
974.093854,80.36082
975.058303,80.463799
976.022752,80.624685
976.987202,80.796423
977.951651,80.818339
978.916100,80.780033
979.880550,80.787016
980.844999,80.82729
981.809448,80.745244
982.773898,80.67316
983.738347,80.659502
984.702797,80.655362
985.667246,80.545121
986.631695,80.468712
987.596145,80.491091
988.560594,80.598573
989.525043,80.58956
990.489493,80.524483
991.453942,80.482679
992.418391,80.421719
993.382841,80.365913
994.347290,80.278136
995.311740,80.165867
996.276189,80.132992
997.240638,80.076068
998.205088,79.94973
999.169537,79.861146
1000.133986,79.866349
1001.098436,79.750006
1002.062885,79.636884
1003.027334,79.531757
1003.991784,79.430422
1004.956233,79.257046
1005.920682,79.097542
1006.885132,78.924254
1007.849581,78.834048
1008.814031,78.770426
1009.778480,78.651643
1010.742929,78.431194
1011.707379,78.168577
1012.671828,77.960634
1013.636277,77.854746
1014.600727,77.581951
1015.565176,77.359597
1016.529625,77.182715
1017.494075,76.905312
1018.458524,76.617747
1019.422974,76.401227
1020.387423,76.165826
1021.351872,75.925487
1022.316322,75.640216
1023.280771,75.437746
1024.245220,75.321971
1025.209670,75.23986
1026.174119,75.060826
1027.138568,74.942353
1028.103018,74.849929
1029.067467,74.845927
1030.031916,74.782503
1030.996366,74.728129
1031.960815,74.704779
1032.925265,74.708694
1033.889714,74.731484
1034.854163,74.867646
1035.818613,75.029446
1036.783062,75.152185
1037.747511,75.239693
1038.711961,75.364005
1039.676410,75.485338
1040.640859,75.663322
1041.605309,75.830288
1042.569758,75.941835
1043.534208,75.968425
1044.498657,75.921499
1045.463106,75.796082
1046.427556,75.65629
1047.392005,75.40879
1048.356454,75.14861
1049.320904,74.83762
1050.285353,74.495967
1051.249802,74.153843
1052.214252,73.824793
1053.178701,73.36929
1054.143150,72.922417
1055.107600,72.515324
1056.072049,72.144116
1057.036499,71.765434
1058.000948,71.451467
1058.965397,71.171758
1059.929847,70.957607
1060.894296,70.683682
1061.858745,70.485574
1062.823195,70.323716
1063.787644,70.170661
1064.752093,70.019627
1065.716543,69.908196
1066.680992,69.782782
1067.645442,69.733627
1068.609891,69.667104
1069.574340,69.593111
1070.538790,69.405611
1071.503239,69.133193
1072.467688,68.776556
1073.432138,68.371996
1074.396587,67.809942
1075.361036,67.143588
1076.325486,66.264833
1077.289935,65.275975
1078.254384,64.244704
1079.218834,63.171027
1080.183283,62.025325
1081.147733,60.958565
1082.112182,59.921773
1083.076631,58.952448
1084.041081,58.054783
1085.005530,57.242494
1085.969979,56.429319
1086.934429,55.621658
1087.898878,54.806727
1088.863327,54.036125
1089.827777,53.229731
1090.792226,52.52955
1091.756676,51.838277
1092.721125,51.205811
1093.685574,50.672346
1094.650024,50.283258
1095.614473,49.974698
1096.578922,49.7646
1097.543372,49.674735
1098.507821,49.771042
1099.472270,49.953238
1100.436720,50.296299
1101.401169,50.706903
1102.365618,51.217962
1103.330068,51.73472
1104.294517,52.27051
1105.258967,52.783485
1106.223416,53.300406
1107.187865,53.695698
1108.152315,53.991042
1109.116764,54.097118
1110.081213,54.053499
1111.045663,53.77937
1112.010112,53.378558
1112.974561,52.823426
1113.939011,52.14864
1114.903460,51.361141
1115.867910,50.677177
1116.832359,50.082464
1117.796808,49.619861
1118.761258,49.27305
1119.725707,49.10674
1120.690156,49.189389
1121.654606,49.560948
1122.619055,50.108516
1123.583504,50.744019
1124.547954,51.409047
1125.512403,52.067787
1126.476852,52.525023
1127.441302,52.739112
1128.405751,52.608635
1129.370201,52.161849
1130.334650,51.351214
1131.299099,50.266486
1132.263549,48.942886
1133.227998,47.528059
1134.192447,46.045028
1135.156897,44.5253
1136.121346,43.01833
1137.085795,41.712191
1138.050245,40.504637
1139.014694,39.451237
1139.979144,38.558905
1140.943593,37.83737
1141.908042,37.22137
1142.872492,36.751617
1143.836941,36.310871
1144.801390,35.965491
1145.765840,35.586559
1146.730289,35.166299
1147.694738,34.682651
1148.659188,34.241261
1149.623637,33.765178
1150.588086,33.231768
1151.552536,32.637197
1152.516985,32.062218
1153.481435,31.452089
1154.445884,30.874536
1155.410333,30.278104
1156.374783,29.69013
1157.339232,29.127155
1158.303681,28.63052
1159.268131,28.198769
1160.232580,27.886624
1161.197029,27.594729
1162.161479,27.373414
1163.125928,27.191514
1164.090378,27.095265
1165.054827,27.074271
1166.019276,27.16733
1166.983726,27.215202
1167.948175,27.31242
1168.912624,27.507813
1169.877074,27.815431
1170.841523,28.131528
1171.805972,28.499678
1172.770422,28.888385
1173.734871,29.364659
1174.699320,29.830162
1175.663770,30.318775
1176.628219,30.829164
1177.592669,31.390502
1178.557118,31.94315
1179.521567,32.577554
1180.486017,33.192267
1181.450466,33.793246
1182.414915,34.336251
1183.379365,34.95317
1184.343814,35.571572
1185.308263,36.204909
1186.272713,36.838308
1187.237162,37.433979
1188.201612,38.007778
1189.166061,38.633714
1190.130510,39.198477
1191.094960,39.775755
1192.059409,40.368069
1193.023858,41.045447
1193.988308,41.733281
1194.952757,42.434615
1195.917206,43.114726
1196.881656,43.780962
1197.846105,44.389044
1198.810554,45.055784
1199.775004,45.679685
1200.739453,46.301033
1201.703903,46.872206
1202.668352,47.375877
1203.632801,47.828107
1204.597251,48.270739
1205.561700,48.606481
1206.526149,48.921045
1207.490599,49.174759
1208.455048,49.386995
1209.419497,49.549379
1210.383947,49.755197
1211.348396,49.954251
1212.312846,50.137201
1213.277295,50.252429
1214.241744,50.358583
1215.206194,50.464761
1216.170643,50.552198
1217.135092,50.594209
1218.099542,50.628316
1219.063991,50.572156
1220.028440,50.461865
1220.992890,50.24972
1221.957339,50.054511
1222.921788,49.84838
1223.886238,49.636944
1224.850687,49.294967
1225.815137,48.997606
1226.779586,48.699981
1227.744035,48.369245
1228.708485,48.058539
1229.672934,47.737667
1230.637383,47.430981
1231.601833,47.245033
1232.566282,47.049471
1233.530731,46.813819
1234.495181,46.503337
1235.459630,46.268939
1236.424080,46.131771
1237.388529,46.022611
1238.352978,45.88614
1239.317428,45.808587
1240.281877,45.864052
1241.246326,45.974883
1242.210776,46.139302
1243.175225,46.457377
1244.139674,46.816489
1245.104124,47.278542
1246.068573,47.755874
1247.033022,48.378422
1247.997472,49.147311
1248.961921,49.875621
1249.926371,50.470095
1250.890820,51.048353
1251.855269,51.602331
1252.819719,52.090928
1253.784168,52.428932
1254.748617,52.757975
1255.713067,52.998086
1256.677516,53.171183
1257.641965,53.353941
1258.606415,53.580292
1259.570864,53.837947
1260.535314,53.943446
1261.499763,54.064274
1262.464212,54.195222
1263.428662,54.334796
1264.393111,54.581667
1265.357560,54.806173
1266.322010,55.016539
1267.286459,55.224134
1268.250908,55.414515
1269.215358,55.66341
1270.179807,56.057532
1271.144256,56.361687
1272.108706,56.440753
1273.073155,56.514635
1274.037605,56.555614
1275.002054,56.56362
1275.966503,56.637941
1276.930953,56.644035
1277.895402,56.653123
1278.859851,56.678794
1279.824301,56.895607
1280.788750,57.311894
1281.753199,57.824845
1282.717649,58.39883
1283.682098,59.158439
1284.646548,59.942494
1285.610997,60.756741
1286.575446,61.566548
1287.539896,62.219596
1288.504345,62.808773
1289.468794,63.330923
1290.433244,63.642023
1291.397693,63.955956
1292.362142,64.15643
1293.326592,64.218353
1294.291041,64.299272
1295.255490,64.492081
1296.219940,64.591014
1297.184389,64.678814
1298.148839,64.704649
1299.113288,64.718015
1300.077737,64.784276
1301.042187,64.902701
1302.006636,65.049434
1302.971085,65.283472
1303.935535,65.524272
1304.899984,65.759957
1305.864433,66.008612
1306.828883,66.345143
1307.793332,66.55763
1308.757782,66.697568
1309.722231,66.87097
1310.686680,66.978959
1311.651130,67.074623
1312.615579,67.007127
1313.580028,66.95912
1314.544478,67.0111
1315.508927,67.167702
1316.473376,67.257719
1317.437826,67.170165
1318.402275,67.310956
1319.366724,67.139322
1320.331174,67.291204
1321.295623,67.590665
1322.260073,67.973854
1323.224522,68.339986
1324.188971,68.881096
1325.153421,69.441258
1326.117870,70.040803
1327.082319,70.543149
1328.046769,71.03293
1329.011218,71.401366
1329.975667,71.640471
1330.940117,71.798478
1331.904566,71.953285
1332.869016,71.95712
1333.833465,71.893335
1334.797914,71.651194
1335.762364,71.436397
1336.726813,71.018563
1337.691262,70.824032
1338.655712,70.333153
1339.620161,69.683507
1340.584610,69.082351
1341.549060,68.879069
1342.513509,68.67008
1343.477958,68.556198
1344.442408,68.316125
1345.406857,68.037561
1346.371307,67.659793
1347.335756,67.310417
1348.300205,67.06378
1349.264655,66.733377
1350.229104,66.553908
1351.193553,66.478282
1352.158003,66.36833
1353.122452,66.415145
1354.086901,66.472283
1355.051351,66.192119
1356.015800,66.179214
1356.980250,66.246604
1357.944699,66.051558
1358.909148,65.985893
1359.873598,66.209251
1360.838047,66.036112
1361.802496,66.098491
1362.766946,65.693738
1363.731395,64.565799
1364.695844,64.982814
1365.660294,65.033639
1366.624743,65.016978
1367.589192,64.980811
1368.553642,64.682141
1369.518091,64.377568
1370.482541,64.411861
1371.446990,64.213129
1372.411439,64.17374
1373.375889,63.85398
1374.340338,62.179715
1375.304787,60.417023
1376.269237,59.636794
1377.233686,59.114988
1378.198135,58.874128
1379.162585,59.671453
1380.127034,61.261376
1381.091484,62.957422
1382.055933,64.833996
1383.020382,66.354378
1383.984832,67.867856
1384.949281,69.193192
1385.913730,70.650743
1386.878180,71.616884
1387.842629,72.024729
1388.807078,73.026867
1389.771528,74.03215
1390.735977,74.588752
1391.700426,75.0926
1392.664876,75.656225
1393.629325,76.339271
1394.593775,75.755641
1395.558224,75.160487
1396.522673,75.43194
1397.487123,75.923723
1398.451572,75.967131
1399.416021,74.965883
1400.380471,74.894829
1401.344920,75.293768
1402.309369,75.421162
1403.273819,76.058653
1404.238268,76.893531
1405.202718,77.208685
1406.167167,77.903907
1407.131616,78.627004
1408.096066,78.719483
1409.060515,78.480641
1410.024964,77.713268
1410.989414,76.901822
1411.953863,75.447786
1412.918312,74.079929
1413.882762,72.712005
1414.847211,71.633272
1415.811660,70.724888
1416.776110,70.203575
1417.740559,70.104839
1418.705009,70.860212
1419.669458,69.108852
1420.633907,70.281635
1421.598357,71.659565
1422.562806,72.861697
1423.527255,73.037062
1424.491705,72.401592
1425.456154,72.517175
1426.420603,72.40278
1427.385053,71.622364
1428.349502,70.955912
1429.313952,70.010294
1430.278401,67.89688
1431.242850,66.825431
1432.207300,65.854328
1433.171749,64.573576
1434.136198,63.575194
1435.100648,63.250817
1436.065097,63.138988
1437.029546,59.452737
1437.993996,59.147123
1438.958445,58.729543
1439.922894,58.151668
1440.887344,58.026119
1441.851793,57.373447
1442.816243,56.679319
1443.780692,56.223564
1444.745141,55.850938
1445.709591,55.574111
1446.674040,55.839639
1447.638489,54.893777
1448.602939,52.764053
1449.567388,52.55522
1450.531837,52.049865
1451.496287,50.851023
1452.460736,48.358503
1453.425186,46.960507
1454.389635,45.881812
1455.354084,44.714402
1456.318534,43.907543
1457.282983,41.333191
1458.247432,40.087502
1459.211882,39.903538
1460.176331,40.245942
1461.140780,40.509768
1462.105230,40.274304
1463.069679,40.558028
1464.034128,40.978978
1464.998578,39.087744
1465.963027,38.409367
1466.927477,39.773585
1467.891926,41.760799
1468.856375,45.864674
1469.820825,51.707823
1470.785274,58.357273
1471.749723,65.392219
1472.714173,73.518797
1473.678622,78.057385
1474.643071,81.616472
1475.607521,84.253815
1476.571970,86.961925
1477.536420,89.189822
1478.500869,91.041716
1479.465318,92.648825
1480.429768,94.089246
1481.394217,95.037324
1482.358666,96.143342
1483.323116,97.156003
1484.287565,97.738097
1485.252014,98.265152
1486.216464,98.912649
1487.180913,99.313532
1488.145362,100.021718
1489.109812,100.785852
1490.074261,101.007034
1491.038711,100.893803
1492.003160,101.24695
1492.967609,101.635516
1493.932059,101.891502
1494.896508,102.368205
1495.860957,102.953194
1496.825407,102.47495
1497.789856,102.994538
1498.754305,103.143356
1499.718755,103.155949
1500.683204,103.320986
1501.647654,103.295191
1502.612103,103.415998
1503.576552,103.883158
1504.541002,104.633014
1505.505451,106.545278
1506.469900,108.468611
1507.434350,106.17868
1508.398799,104.821106
1509.363248,104.483083
1510.327698,104.357788
1511.292147,104.821584
1512.256596,104.814719
1513.221046,105.068617
1514.185495,105.363664
1515.149945,105.370361
1516.114394,105.666527
1517.078843,105.579268
1518.043293,105.490885
1519.007742,105.78551
1519.972191,106.562597
1520.936641,107.119793
1521.901090,106.494785
1522.865539,106.324646
1523.829989,106.522384
1524.794438,106.829451
1525.758888,106.537287
1526.723337,106.543832
1527.687786,106.519445
1528.652236,106.70748
1529.616685,106.881491
1530.581134,107.046876
1531.545584,107.073492
1532.510033,107.385503
1533.474482,107.467547
1534.438932,107.35077
1535.403381,107.250648
1536.367830,107.345523
1537.332280,107.570704
1538.296729,108.054691
1539.261179,108.435286
1540.225628,108.989629
1541.190077,108.790257
1542.154527,108.675543
1543.118976,107.898965
1544.083425,107.727835
1545.047875,107.53904
1546.012324,107.734275
1546.976773,107.816048
1547.941223,107.840023
1548.905672,107.849908
1549.870122,107.626087
1550.834571,107.708013
1551.799020,107.901313
1552.763470,108.032282
1553.727919,108.158684
1554.692368,107.909895
1555.656818,108.02405
1556.621267,108.279019
1557.585716,109.231019
1558.550166,108.069703
1559.514615,109.332332
1560.479064,108.484739
1561.443514,108.293362
1562.407963,108.193783
1563.372413,108.216542
1564.336862,108.166018
1565.301311,108.11697
1566.265761,108.210252
1567.230210,108.328821
1568.194659,108.512306
1569.159109,108.489417
1570.123558,108.21278
1571.088007,108.316803
1572.052457,108.365996
1573.016906,108.40171
1573.981356,108.420377
1574.945805,108.566094
1575.910254,108.315844
1576.874704,108.379744
1577.839153,108.467342
1578.803602,108.470902
1579.768052,108.51432
1580.732501,108.603555
1581.696950,108.577084
1582.661400,108.55833
1583.625849,108.571853
1584.590298,108.572967
1585.554748,108.500271
1586.519197,108.511703
1587.483647,108.485556
1588.448096,108.50647
1589.412545,108.448734
1590.376995,108.427875
1591.341444,108.475433
1592.305893,108.534832
1593.270343,108.560202
1594.234792,108.604791
1595.199241,108.594044
1596.163691,108.561046
1597.128140,108.494529
1598.092590,108.462088
1599.057039,108.30175
1600.021488,108.345213
1600.985938,108.386314
1601.950387,108.408892
1602.914836,108.243234
1603.879286,108.099706
1604.843735,108.061286
1605.808184,108.065268
1606.772634,107.986736
1607.737083,107.885617
1608.701532,107.850288
1609.665982,107.753471
1610.630431,107.728338
1611.594881,107.698568
1612.559330,107.606458
1613.523779,107.547623
1614.488229,107.532134
1615.452678,107.831468
1616.417127,108.422748
1617.381577,107.671683
1618.346026,107.253555
1619.310475,107.064168
1620.274925,106.975801
1621.239374,107.056707
1622.203824,107.160703
1623.168273,107.001825
1624.132722,106.71889
1625.097172,106.677851
1626.061621,106.637594
1627.026070,106.661424
1627.990520,106.358379
1628.954969,106.357835
1629.919418,106.315288
1630.883868,106.237273
1631.848317,106.151066
1632.812766,106.239639
1633.777216,106.725269
1634.741665,108.02333
1635.706115,106.960847
1636.670564,106.332333
1637.635013,105.233206
1638.599463,104.670028
1639.563912,104.328976
1640.528361,103.787638
1641.492811,103.155703
1642.457260,102.471481
1643.421709,101.948425
1644.386159,102.084176
1645.350608,102.71004
1646.315058,102.72745
1647.279507,101.752146
1648.243956,99.78843
1649.208406,98.978398
1650.172855,99.032926
1651.137304,99.698536
1652.101754,101.928579
1653.066203,102.315928
1654.030652,99.241919
1654.995102,97.383605
1655.959551,97.55288
1656.924000,97.713459
1657.888450,98.141428
1658.852899,98.534556
1659.817349,99.082954
1660.781798,99.686699
1661.746247,100.461091
1662.710697,100.416691
1663.675146,100.726416
1664.639595,101.095702
1665.604045,101.137743
1666.568494,101.065271
1667.532943,101.231613
1668.497393,101.6493
1669.461842,101.049295
1670.426292,100.901075
1671.390741,100.520455
1672.355190,100.135266
1673.319640,100.213137
1674.284089,100.615941
1675.248538,99.89013
1676.212988,99.226192
1677.177437,99.123938
1678.141886,98.932208
1679.106336,98.706387
1680.070785,97.947622
1681.035234,97.378099
1681.999684,97.556488
1682.964133,98.733378
1683.928583,97.839493
1684.893032,94.809111
1685.857481,94.34267
1686.821931,94.359964
1687.786380,93.78456
1688.750829,92.878552
1689.715279,92.191313
1690.679728,91.344163
1691.644177,90.739081
1692.608627,90.176988
1693.573076,89.314062
1694.537526,89.812997
1695.501975,88.398019
1696.466424,84.392421
1697.430874,83.72865
1698.395323,83.948942
1699.359772,85.292812
1700.324222,78.907531
1701.288671,75.332775
1702.253120,75.637716
1703.217570,75.04795
1704.182019,72.885545
1705.146468,70.580286
1706.110918,68.880001
1707.075367,65.194215
1708.039817,64.536659
1709.004266,64.015608
1709.968715,62.663066
1710.933165,61.077163
1711.897614,61.149692
1712.862063,61.245845
1713.826513,61.581064
1714.790962,59.857225
1715.755411,59.389378
1716.719861,60.339159
1717.684310,58.486066
1718.648760,54.255774
1719.613209,54.63726
1720.577658,54.299484
1721.542108,53.545968
1722.506557,52.516731
1723.471006,50.622514
1724.435456,48.723404
1725.399905,47.526549
1726.364354,45.617428
1727.328804,43.747958
1728.293253,42.024436
1729.257702,40.626276
1730.222152,36.029378
1731.186601,34.185103
1732.151051,33.595257
1733.115500,32.941872
1734.079949,25.935165
1735.044399,21.723439
1736.008848,21.160569
1736.973297,19.98726
1737.937747,17.993061
1738.902196,17.038012
1739.866645,14.120877
1740.831095,12.77695
1741.795544,12.521995
1742.759994,12.021928
1743.724443,10.688431
1744.688892,10.54576
1745.653342,10.498649
1746.617791,10.789332
1747.582240,10.783348
1748.546690,11.031436
1749.511139,11.520479
1750.475588,12.704421
1751.440038,13.743897
1752.404487,15.721154
1753.368936,17.587065
1754.333386,20.101965
1755.297835,23.019099
1756.262285,26.314877
1757.226734,30.28341
1758.191183,34.46514
1759.155633,38.977568
1760.120082,43.73619
1761.084531,48.241485
1762.048981,52.804669
1763.013430,57.626457
1763.977879,61.716843
1764.942329,65.683345
1765.906778,68.924737
1766.871228,72.219368
1767.835677,74.552021
1768.800126,76.82666
1769.764576,79.592149
1770.729025,82.154275
1771.693474,83.626662
1772.657924,84.426296
1773.622373,86.004071
1774.586822,87.788615
1775.551272,88.556857
1776.515721,89.723837
1777.480170,90.857314
1778.444620,91.869735
1779.409069,92.832124
1780.373519,93.660057
1781.337968,94.05721
1782.302417,94.931077
1783.266867,95.567276
1784.231316,96.309883
1785.195765,96.652119
1786.160215,97.440779
1787.124664,98.131284
1788.089113,98.545623
1789.053563,98.943274
1790.018012,99.422396
1790.982462,99.642046
1791.946911,100.180217
1792.911360,100.223593
1793.875810,100.734866
1794.840259,101.098405
1795.804708,101.177399
1796.769158,101.449322
1797.733607,102.005243
1798.698056,102.367551
1799.662506,102.479786
1800.626955,102.748403
1801.591404,103.018235
1802.555854,103.137253
1803.520303,103.487827
1804.484753,103.762285
1805.449202,104.009795
1806.413651,104.24341
1807.378101,104.47886
1808.342550,104.779128
1809.306999,105.269534
1810.271449,105.413212
1811.235898,105.523455
1812.200347,105.744873
1813.164797,106.064304
1814.129246,106.362628
1815.093696,106.564345
1816.058145,106.674642
1817.022594,106.73217
1817.987044,106.860224
1818.951493,107.123579
1819.915942,107.278261
1820.880392,107.373962
1821.844841,107.438735
1822.809290,107.548243
1823.773740,107.811258
1824.738189,107.961197
1825.702638,107.887998
1826.667088,108.058253
1827.631537,108.19561
1828.595987,108.448639
1829.560436,108.390909
1830.524885,108.460809
1831.489335,108.580832
1832.453784,108.652357
1833.418233,108.701159
1834.382683,108.851947
1835.347132,108.993125
1836.311581,109.116758
1837.276031,109.11968
1838.240480,109.241893
1839.204930,109.346196
1840.169379,109.487083
1841.133828,109.593176
1842.098278,109.667569
1843.062727,109.800124
1844.027176,109.723769
1844.991626,109.688728
1845.956075,109.912133
1846.920524,109.993969
1847.884974,110.031441
1848.849423,110.139906
1849.813872,110.278911
1850.778322,110.33445
1851.742771,110.40546
1852.707221,110.486553
1853.671670,110.593226
1854.636119,110.654212
1855.600569,110.732555
1856.565018,110.79517
1857.529467,110.852488
1858.493917,110.789967
1859.458366,110.836321
1860.422815,110.910681
1861.387265,110.949127
1862.351714,111.02051
1863.316164,111.084199
1864.280613,111.107752
1865.245062,111.222924
1866.209512,111.228802
1867.173961,111.325865
1868.138410,111.415698
1869.102860,111.339391
1870.067309,111.246867
1871.031758,111.288001
1871.996208,111.305255
1872.960657,111.397718
1873.925106,111.442399
1874.889556,111.503285
1875.854005,111.496525
1876.818455,111.547655
1877.782904,111.566348
1878.747353,111.578217
1879.711803,111.623481
1880.676252,111.702376
1881.640701,111.72333
1882.605151,111.748312
1883.569600,111.707256
1884.534049,111.706279
1885.498499,111.783625
1886.462948,111.878722
1887.427398,111.903576
1888.391847,111.984162
1889.356296,111.924615
1890.320746,111.96154
1891.285195,112.035006
1892.249644,112.043556
1893.214094,112.019747
1894.178543,112.028341
1895.142992,112.006466
1896.107442,112.142427
1897.071891,112.222622
1898.036340,112.19629
1899.000790,112.198994
1899.965239,112.24403
1900.929689,112.243641
1901.894138,112.258703
1902.858587,112.260226
1903.823037,112.225964
1904.787486,112.203527
1905.751935,112.279954
1906.716385,112.330744
1907.680834,112.351447
1908.645283,112.407422
1909.609733,112.356335
1910.574182,112.336864
1911.538632,112.397197
1912.503081,112.351412
1913.467530,112.380244
1914.431980,112.398173
1915.396429,112.408208
1916.360878,112.462883
1917.325328,112.470163
1918.289777,112.348556
1919.254226,112.529195
1920.218676,112.526522
1921.183125,112.524916
1922.147574,112.448234
1923.112024,112.375298
1924.076473,112.441293
1925.040923,112.488068
1926.005372,112.516776
1926.969821,112.554793
1927.934271,112.539063
1928.898720,112.577094
1929.863169,112.598359
1930.827619,112.57936
1931.792068,112.455919
1932.756517,112.364225
1933.720967,112.441052
1934.685416,112.49938
1935.649866,112.426926
1936.614315,112.439129
1937.578764,112.484371
1938.543214,112.513649
1939.507663,112.471938
1940.472112,112.576007
1941.436562,112.65059
1942.401011,112.478259
1943.365460,112.669737
1944.329910,112.789522
1945.294359,112.505981
1946.258808,112.421208
1947.223258,112.464248
1948.187707,112.616269
1949.152157,112.606913
1950.116606,112.576403
1951.081055,112.550193
1952.045505,112.62332
1953.009954,112.607195
1953.974403,112.602567
1954.938853,112.613897
1955.903302,112.703087
1956.867751,112.7267
1957.832201,112.723488
1958.796650,112.709518
1959.761100,112.729661
1960.725549,112.686475
1961.689998,112.647084
1962.654448,112.66218
1963.618897,112.720209
1964.583346,112.764675
1965.547796,112.810988
1966.512245,112.712064
1967.476694,112.666164
1968.441144,112.770083
1969.405593,112.843098
1970.370042,112.807075
1971.334492,112.803862
1972.298941,112.833037
1973.263391,112.909042
1974.227840,112.917297
1975.192289,112.933224
1976.156739,112.887548
1977.121188,112.867095
1978.085637,112.827758
1979.050087,112.810639
1980.014536,112.815498
1980.978985,112.83827
1981.943435,112.810866
1982.907884,112.791077
1983.872334,112.821394
1984.836783,112.883398
1985.801232,112.926447
1986.765682,112.943867
1987.730131,112.854776
1988.694580,112.837089
1989.659030,112.896934
1990.623479,112.920482
1991.587928,112.802412
1992.552378,112.788928
1993.516827,112.930555
1994.481276,112.980578
1995.445726,112.95826
1996.410175,112.939594
1997.374625,112.961468
1998.339074,112.909058
1999.303523,112.855462
2000.267973,112.892108
2001.232422,112.929477
2002.196871,112.991033
2003.161321,112.933349
2004.125770,112.888624
2005.090219,112.908084
2006.054669,112.923775
2007.019118,112.86715
2007.983568,112.868351
2008.948017,112.900893
2009.912466,112.933352
2010.876916,112.818677
2011.841365,112.778966
2012.805814,112.766383
2013.770264,112.800274
2014.734713,112.791304
2015.699162,112.704948
2016.663612,112.465973
2017.628061,112.458637
2018.592510,112.483995
2019.556960,112.522577
2020.521409,112.513586
2021.485859,112.480104
2022.450308,112.442946
2023.414757,112.459684
2024.379207,112.492485
2025.343656,112.485491
2026.308105,112.470758
2027.272555,112.520268
2028.237004,112.513734
2029.201453,112.525326
2030.165903,112.52347
2031.130352,112.510094
2032.094802,112.562795
2033.059251,112.62009
2034.023700,112.553204
2034.988150,112.523881
2035.952599,112.625181
2036.917048,112.666741
2037.881498,112.667782
2038.845947,112.709847
2039.810396,112.661491
2040.774846,112.566685
2041.739295,112.534571
2042.703744,112.706031
2043.668194,112.792656
2044.632643,112.818964
2045.597093,112.806048
2046.561542,112.87808
2047.525991,112.879506
2048.490441,112.893146
2049.454890,112.934981
2050.419339,113.024434
2051.383789,113.055946
2052.348238,113.066727
2053.312687,113.036872
2054.277137,113.080444
2055.241586,113.080858
2056.206036,113.092199
2057.170485,113.08544
2058.134934,113.080508
2059.099384,113.065104
2060.063833,113.062016
2061.028282,113.096565
2061.992732,113.211217
2062.957181,113.245804
2063.921630,113.209371
2064.886080,113.076168
2065.850529,113.230932
2066.814978,113.391735
2067.779428,113.410487
2068.743877,113.362996
2069.708327,113.370357
2070.672776,113.459587
2071.637225,113.55909
2072.601675,113.551661
2073.566124,113.538762
2074.530573,113.499724
2075.495023,113.531735
2076.459472,113.593057
2077.423921,113.569529
2078.388371,113.501124
2079.352820,113.557177
2080.317270,113.612949
2081.281719,113.708296
2082.246168,113.803586
2083.210618,113.870426
2084.175067,113.886506
2085.139516,113.908768
2086.103966,113.86768
2087.068415,113.872177
2088.032864,113.919241
2088.997314,114.003892
2089.961763,114.015827
2090.926212,114.09713
2091.890662,114.126219
2092.855111,114.156896
2093.819561,114.174529
2094.784010,114.21574
2095.748459,114.273529
2096.712909,114.286596
2097.677358,114.249238
2098.641807,114.294383
2099.606257,114.31887
2100.570706,114.303374
2101.535155,114.288402
2102.499605,114.322506
2103.464054,114.372886
2104.428504,114.372912
2105.392953,114.348596
2106.357402,114.423296
2107.321852,114.515285
2108.286301,114.566194
2109.250750,114.573684
2110.215200,114.582549
2111.179649,114.565837
2112.144098,114.581951
2113.108548,114.559447
2114.072997,114.612464
2115.037446,114.690068
2116.001896,114.772458
2116.966345,114.742688
2117.930795,114.703451
2118.895244,114.695919
2119.859693,114.76801
2120.824143,114.840384
2121.788592,114.865506
2122.753041,114.868733
2123.717491,114.887576
2124.681940,114.869478
2125.646389,114.833079
2126.610839,114.803665
2127.575288,114.876152
2128.539738,114.950343
2129.504187,114.941402
2130.468636,114.878788
2131.433086,114.910618
2132.397535,114.972123
2133.361984,114.999428
2134.326434,114.914098
2135.290883,114.849045
2136.255332,114.831858
2137.219782,114.88895
2138.184231,114.910958
2139.148680,114.922412
2140.113130,114.903728
2141.077579,114.890457
2142.042029,114.866624
2143.006478,114.914093
2143.970927,114.930738
2144.935377,114.928084
2145.899826,114.852276
2146.864275,114.910258
2147.828725,114.955821
2148.793174,114.931058
2149.757623,114.935489
2150.722073,114.903276
2151.686522,114.795302
2152.650972,114.748739
2153.615421,114.683979
2154.579870,114.73242
2155.544320,114.755878
2156.508769,114.744547
2157.473218,114.762661
2158.437668,114.777378
2159.402117,114.778819
2160.366566,114.831395
2161.331016,114.875391
2162.295465,114.878335
2163.259914,114.898297
2164.224364,114.921644
2165.188813,114.952214
2166.153263,114.95317
2167.117712,114.90516
2168.082161,114.85327
2169.046611,114.918403
2170.011060,114.972846
2170.975509,114.92953
2171.939959,114.922241
2172.904408,114.894812
2173.868857,114.885728
2174.833307,114.875591
2175.797756,114.877068
2176.762206,114.953226
2177.726655,115.050619
2178.691104,115.029005
2179.655554,115.011435
2180.620003,115.052052
2181.584452,115.101282
2182.548902,115.136649
2183.513351,115.12518
2184.477800,115.059444
2185.442250,115.064404
2186.406699,115.018414
2187.371148,115.03261
2188.335598,115.103173
2189.300047,115.114476
2190.264497,115.137153
2191.228946,115.170944
2192.193395,115.185199
2193.157845,115.181369
2194.122294,115.125649
2195.086743,115.092058
2196.051193,115.1908
2197.015642,115.228415
2197.980091,115.24323
2198.944541,115.264918
2199.908990,115.213464
2200.873440,115.227585
2201.837889,115.279493
2202.802338,115.306438
2203.766788,115.321604
2204.731237,115.368924
2205.695686,115.409508
2206.660136,115.458229
2207.624585,115.526755
2208.589034,115.582514
2209.553484,115.620907
2210.517933,115.607322
2211.482382,115.60587
2212.446832,115.640254
2213.411281,115.673551
2214.375731,115.672928
2215.340180,115.664598
2216.304629,115.721267
2217.269079,115.798442
2218.233528,115.781697
2219.197977,115.65019
2220.162427,115.637114
2221.126876,115.66739
2222.091325,115.65057
2223.055775,115.686748
2224.020224,115.714318
2224.984674,115.681991
2225.949123,115.654443
2226.913572,115.650181
2227.878022,115.722739
2228.842471,115.737142
2229.806920,115.661322
2230.771370,115.658641
2231.735819,115.717861
2232.700268,115.703174
2233.664718,115.671055
2234.629167,115.638146
2235.593616,115.64724
2236.558066,115.719371
2237.522515,115.749901
2238.486965,115.696114
2239.451414,115.647383
2240.415863,115.676816
2241.380313,115.635975
2242.344762,115.618704
2243.309211,115.638443
2244.273661,115.6896
2245.238110,115.668132
2246.202559,115.6516
2247.167009,115.682103
2248.131458,115.683895
2249.095908,115.692319
2250.060357,115.735981
2251.024806,115.714129
2251.989256,115.674531
2252.953705,115.691638
2253.918154,115.67719
2254.882604,115.717023
2255.847053,115.712565
2256.811502,115.729377
2257.775952,115.722481
2258.740401,115.690847
2259.704850,115.648804
2260.669300,115.655631
2261.633749,115.655666
2262.598199,115.660585
2263.562648,115.601274
2264.527097,115.603637
2265.491547,115.653052
2266.455996,115.601562
2267.420445,115.507356
2268.384895,115.478364
2269.349344,115.51559
2270.313793,115.532093
2271.278243,115.485697
2272.242692,115.477952
2273.207142,115.481689
2274.171591,115.529635
2275.136040,115.536275
2276.100490,115.519195
2277.064939,115.472812
2278.029388,115.454101
2278.993838,115.419083
2279.958287,115.436671
2280.922736,115.45947
2281.887186,115.435457
2282.851635,115.429208
2283.816084,115.443518
2284.780534,115.487737
2285.744983,115.502092
2286.709433,115.360149
2287.673882,115.33203
2288.638331,115.364712
2289.602781,115.421579
2290.567230,115.35364
2291.531679,115.225181
2292.496129,115.311155
2293.460578,115.241009
2294.425027,115.166781
2295.389477,115.188494
2296.353926,115.108599
2297.318376,115.145041
2298.282825,114.974621
2299.247274,115.08829
2300.211724,114.985137
2301.176173,115.006225
2302.140622,115.086397
2303.105072,115.096709
2304.069521,115.180121
2305.033970,115.04583
2305.998420,115.187543
2306.962869,115.118923
2307.927318,115.432854
2308.891768,115.227069
2309.856217,115.382926
2310.820667,115.478083
2311.785116,115.557991
2312.749565,115.695786
2313.714015,115.762978
2314.678464,115.761854
2315.642913,115.486037
2316.607363,115.728555
2317.571812,115.786861
2318.536261,116.182659
2319.500711,116.085792
2320.465160,116.557303
2321.429610,116.664578
2322.394059,117.005368
2323.358508,116.52655
2324.322958,116.387803
2325.287407,116.24432
2326.251856,116.50536
2327.216306,116.292634
2328.180755,116.586151
2329.145204,116.393977
2330.109654,116.599947
2331.074103,116.322452
2332.038552,116.452407
2333.003002,116.335551
2333.967451,116.268159
2334.931901,115.853391
2335.896350,115.765438
2336.860799,115.455051
2337.825249,115.85375
2338.789698,115.724442
2339.754147,115.532811
2340.718597,114.931373
2341.683046,115.006757
2342.647495,114.781479
2343.611945,114.854328
2344.576394,114.898013
2345.540844,115.073861
2346.505293,115.03815
2347.469742,114.78001
2348.434192,114.891049
2349.398641,114.938035
2350.363090,114.752462
2351.327540,115.127932
2352.291989,114.788941
2353.256438,114.725589
2354.220888,114.94626
2355.185337,115.229896
2356.149786,114.272735
2357.114236,113.938694
2358.078685,113.445519
2359.043135,113.896463
2360.007584,113.279691
2360.972033,113.363332
2361.936483,112.988911
2362.900932,113.155033
2363.865381,112.460657
2364.829831,112.621503
2365.794280,112.850661
2366.758729,113.424503
2367.723179,113.285452
2368.687628,113.185637
2369.652078,113.374409
2370.616527,113.895346
2371.580976,113.826383
2372.545426,113.741902
2373.509875,113.778245
2374.474324,113.917585
2375.438774,114.01175
2376.403223,114.129285
2377.367672,114.243473
2378.332122,114.396658
2379.296571,114.348603
2380.261020,114.353615
2381.225470,114.364906
2382.189919,114.526978
2383.154369,114.681731
2384.118818,114.814379
2385.083267,114.867222
2386.047717,114.911752
2387.012166,114.979847
2387.976615,115.070163
2388.941065,115.130356
2389.905514,115.164158
2390.869963,115.16321
2391.834413,115.260373
2392.798862,115.329139
2393.763312,115.387732
2394.727761,115.40271
2395.692210,115.412971
2396.656660,115.35609
2397.621109,115.393636
2398.585558,115.444744
2399.550008,115.473454
2400.514457,115.511392
2401.478906,115.535263
2402.443356,115.522638
2403.407805,115.563768
2404.372254,115.495594
2405.336704,115.440705
2406.301153,115.500066
2407.265603,115.584261
2408.230052,115.519162
2409.194501,115.464669
2410.158951,115.40832
2411.123400,115.435087
2412.087849,115.455347
2413.052299,115.513117
2414.016748,115.518253
2414.981197,115.560246
2415.945647,115.641747
2416.910096,115.696653
2417.874546,115.676597
2418.838995,115.709668
2419.803444,115.710151
2420.767894,115.663299
2421.732343,115.618696
2422.696792,115.605284
2423.661242,115.560425
2424.625691,115.649574
2425.590140,115.734906
2426.554590,115.784874
2427.519039,115.809295
2428.483488,115.820457
2429.447938,115.78946
2430.412387,115.821961
2431.376837,115.883839
2432.341286,115.929174
2433.305735,115.929623
2434.270185,115.969694
2435.234634,115.970774
2436.199083,116.035104
2437.163533,116.050263
2438.127982,116.032983
2439.092431,115.96581
2440.056881,115.999357
2441.021330,116.005092
2441.985780,115.960372
2442.950229,115.991321
2443.914678,116.065135
2444.879128,116.0745
2445.843577,116.078755
2446.808026,116.059861
2447.772476,115.9934
2448.736925,115.984221
2449.701374,116.035405
2450.665824,116.04319
2451.630273,116.078847
2452.594722,116.025425
2453.559172,116.028629
2454.523621,116.109939
2455.488071,116.136059
2456.452520,116.071972
2457.416969,116.006672
2458.381419,115.960132
2459.345868,115.98293
2460.310317,116.01234
2461.274767,115.973175
2462.239216,115.911586
2463.203665,115.930223
2464.168115,115.967425
2465.132564,116.028587
2466.097014,116.054978
2467.061463,116.057828
2468.025912,116.023077
2468.990362,116.027045
2469.954811,116.002004
2470.919260,115.98558
2471.883710,116.005316
2472.848159,115.993291
2473.812608,115.980198
2474.777058,115.948683
2475.741507,115.919137
2476.705956,115.936694
2477.670406,115.853642
2478.634855,115.775182
2479.599305,115.798464
2480.563754,115.873208
2481.528203,115.856376
2482.492653,115.791591
2483.457102,115.785552
2484.421551,115.828193
2485.386001,115.844728
2486.350450,115.889076
2487.314899,115.964999
2488.279349,116.023373
2489.243798,115.994968
2490.208248,115.952224
2491.172697,115.923189
2492.137146,115.940741
2493.101596,115.917749
2494.066045,115.911732
2495.030494,115.876372
2495.994944,115.855783
2496.959393,115.821487
2497.923842,115.814363
2498.888292,115.790462
2499.852741,115.778279
2500.817190,115.806782
2501.781640,115.840567
2502.746089,115.73979
2503.710539,115.740616
2504.674988,115.673889
2505.639437,115.598664
2506.603887,115.541971
2507.568336,115.5112
2508.532785,115.495267
2509.497235,115.464094
2510.461684,115.40917
2511.426133,115.373634
2512.390583,115.355235
2513.355032,115.412704
2514.319482,115.303284
2515.283931,115.137827
2516.248380,115.040611
2517.212830,115.049905
2518.177279,115.037112
2519.141728,115.022571
2520.106178,114.955918
2521.070627,114.951121
2522.035076,114.971052
2522.999526,114.948132
2523.963975,114.899986
2524.928424,114.888962
2525.892874,114.859112
2526.857323,114.760084
2527.821773,114.694219
2528.786222,114.670744
2529.750671,114.647513
2530.715121,114.663883
2531.679570,114.593423
2532.644019,114.563277
2533.608469,114.591594
2534.572918,114.580607
2535.537367,114.589517
2536.501817,114.672957
2537.466266,114.638394
2538.430716,114.586066
2539.395165,114.545226
2540.359614,114.597533
2541.324064,114.651926
2542.288513,114.680579
2543.252962,114.51361
2544.217412,114.428443
2545.181861,114.440225
2546.146310,114.485115
2547.110760,114.45813
2548.075209,114.435308
2549.039658,114.374906
2550.004108,114.32513
2550.968557,114.252096
2551.933007,114.263955
2552.897456,114.308451
2553.861905,114.333392
2554.826355,114.272427
2555.790804,114.232235
2556.755253,114.234701
2557.719703,114.227337
2558.684152,114.201247
2559.648601,114.213763
2560.613051,114.231374
2561.577500,114.180235
2562.541950,114.097009
2563.506399,114.099119
2564.470848,114.063672
2565.435298,114.020135
2566.399747,114.011033
2567.364196,113.944244
2568.328646,113.856761
2569.293095,113.834531
2570.257544,113.812366
2571.221994,113.83058
2572.186443,113.820436
2573.150892,113.801844
2574.115342,113.737914
2575.079791,113.739968
2576.044241,113.691886
2577.008690,113.679664
2577.973139,113.612042
2578.937589,113.552886
2579.902038,113.528173
2580.866487,113.504984
2581.830937,113.511067
2582.795386,113.573876
2583.759835,113.550678
2584.724285,113.532601
2585.688734,113.405036
2586.653184,113.288447
2587.617633,113.250985
2588.582082,113.277068
2589.546532,113.271135
2590.510981,113.229131
2591.475430,113.14616
2592.439880,113.138099
2593.404329,113.151136
2594.368778,113.195975
2595.333228,113.145731
2596.297677,113.08676
2597.262126,113.01966
2598.226576,113.013939
2599.191025,112.969295
2600.155475,112.974041
2601.119924,112.983103
2602.084373,112.941396
2603.048823,112.798236
2604.013272,112.706052
2604.977721,112.671582
2605.942171,112.744599
2606.906620,112.751103
2607.871069,112.664877
2608.835519,112.559326
2609.799968,112.536321
2610.764418,112.604106
2611.728867,112.618541
2612.693316,112.496306
2613.657766,112.421296
2614.622215,112.391233
2615.586664,112.39463
2616.551114,112.354132
2617.515563,112.355205
2618.480012,112.280591
2619.444462,112.176197
2620.408911,112.077329
2621.373360,112.092476
2622.337810,112.08916
2623.302259,112.001038
2624.266709,111.843169
2625.231158,111.770695
2626.195607,111.704521
2627.160057,111.685399
2628.124506,111.598973
2629.088955,111.524364
2630.053405,111.486005
2631.017854,111.454227
2631.982303,111.387258
2632.946753,111.311943
2633.911202,111.23696
2634.875652,111.177429
2635.840101,111.095997
2636.804550,111.044083
2637.769000,110.992176
2638.733449,110.996721
2639.697898,110.942255
2640.662348,110.838671
2641.626797,110.796239
2642.591246,110.858082
2643.555696,110.854958
2644.520145,110.767331
2645.484594,110.686268
2646.449044,110.717381
2647.413493,110.743248
2648.377943,110.759331
2649.342392,110.706429
2650.306841,110.583302
2651.271291,110.475003
2652.235740,110.405625
2653.200189,110.393843
2654.164639,110.371819
2655.129088,110.269518
2656.093537,110.067195
2657.057987,109.871119
2658.022436,109.803985
2658.986886,109.766703
2659.951335,109.695677
2660.915784,109.56552
2661.880234,109.452491
2662.844683,109.344962
2663.809132,109.280008
2664.773582,109.284646
2665.738031,109.226687
2666.702480,109.090239
2667.666930,108.997184
2668.631379,108.914097
2669.595828,108.823744
2670.560278,108.805466
2671.524727,108.833549
2672.489177,108.706741
2673.453626,108.641841
2674.418075,108.667141
2675.382525,108.593963
2676.346974,108.527973
2677.311423,108.550132
2678.275873,108.546573
2679.240322,108.553454
2680.204771,108.544436
2681.169221,108.653435
2682.133670,108.713265
2683.098120,108.791498
2684.062569,108.848566
2685.027018,108.85937
2685.991468,108.889136
2686.955917,109.069089
2687.920366,109.237137
2688.884816,109.305398
2689.849265,109.401107
2690.813714,109.500581
2691.778164,109.612995
2692.742613,109.783284
2693.707062,109.932459
2694.671512,110.030359
2695.635961,110.087303
2696.600411,110.165691
2697.564860,110.243418
2698.529309,110.323766
2699.493759,110.376423
2700.458208,110.427233
2701.422657,110.422996
2702.387107,110.470747
2703.351556,110.565315
2704.316005,110.597772
2705.280455,110.531024
2706.244904,110.492048
2707.209354,110.470015
2708.173803,110.374304
2709.138252,110.253921
2710.102702,110.22063
2711.067151,110.213023
2712.031600,110.182263
2712.996050,110.084452
2713.960499,110.034102
2714.924948,110.038895
2715.889398,110.072672
2716.853847,110.052424
2717.818296,109.995374
2718.782746,109.956351
2719.747195,109.956284
2720.711645,109.836337
2721.676094,109.733494
2722.640543,109.740679
2723.604993,109.692454
2724.569442,109.498753
2725.533891,109.347733
2726.498341,109.26926
2727.462790,109.252203
2728.427239,109.1861
2729.391689,109.159029
2730.356138,109.130816
2731.320588,109.144677
2732.285037,109.233837
2733.249486,109.303453
2734.213936,109.315588
2735.178385,109.417434
2736.142834,109.439124
2737.107284,109.4546
2738.071733,109.549979
2739.036182,109.673144
2740.000632,109.828614
2740.965081,109.861342
2741.929530,109.736049
2742.893980,109.727004
2743.858429,109.807835
2744.822879,109.798801
2745.787328,109.694357
2746.751777,109.626311
2747.716227,109.638637
2748.680676,109.689237
2749.645125,109.660644
2750.609575,109.661309
2751.574024,109.660283
2752.538473,109.646273
2753.502923,109.566068
2754.467372,109.509141
2755.431822,109.39547
2756.396271,109.381043
2757.360720,109.423812
2758.325170,109.413489
2759.289619,109.343822
2760.254068,109.340059
2761.218518,109.326983
2762.182967,109.270493
2763.147416,109.159795
2764.111866,109.029751
2765.076315,108.923403
2766.040764,108.883375
2767.005214,108.731025
2767.969663,108.574813
2768.934113,108.457714
2769.898562,108.39111
2770.863011,108.318792
2771.827461,108.19394
2772.791910,107.940821
2773.756359,107.713392
2774.720809,107.60261
2775.685258,107.567867
2776.649707,107.444238
2777.614157,107.230421
2778.578606,106.955992
2779.543056,106.66889
2780.507505,106.366892
2781.471954,106.116109
2782.436404,105.850154
2783.400853,105.587748
2784.365302,105.28438
2785.329752,104.964314
2786.294201,104.685601
2787.258650,104.389212
2788.223100,104.017572
2789.187549,103.674158
2790.151998,103.316482
2791.116448,103.041268
2792.080897,102.794824
2793.045347,102.531705
2794.009796,102.226071
2794.974245,101.819795
2795.938695,101.373293
2796.903144,100.970977
2797.867593,100.565114
2798.832043,100.257761
2799.796492,99.925229
2800.760941,99.461208
2801.725391,98.995449
2802.689840,98.554406
2803.654290,98.018801
2804.618739,97.553374
2805.583188,97.068921
2806.547638,96.57166
2807.512087,95.984293
2808.476536,95.361139
2809.440986,94.653219
2810.405435,93.993724
2811.369884,93.333702
2812.334334,92.668066
2813.298783,91.877318
2814.263232,91.01664
2815.227682,90.208301
2816.192131,89.357369
2817.156581,88.387606
2818.121030,87.385634
2819.085479,86.281554
2820.049929,85.232785
2821.014378,84.05472
2821.978827,82.774852
2822.943277,81.443875
2823.907726,80.060511
2824.872175,78.582697
2825.836625,77.070048
2826.801074,75.404393
2827.765524,73.669213
2828.729973,71.8236
2829.694422,69.945431
2830.658872,68.069709
2831.623321,66.226594
2832.587770,64.290522
2833.552220,62.35293
2834.516669,60.31107
2835.481118,58.280261
2836.445568,56.078411
2837.410017,53.712268
2838.374466,51.162204
2839.338916,48.493721
2840.303365,45.533035
2841.267815,42.394466
2842.232264,39.059945
2843.196713,35.668021
2844.161163,32.166121
2845.125612,28.765595
2846.090061,25.549229
2847.054511,22.721084
2848.018960,20.128713
2848.983409,17.89794
2849.947859,15.930782
2850.912308,14.413771
2851.876758,13.221295
2852.841207,12.521174
2853.805656,12.070573
2854.770106,11.995596
2855.734555,12.240809
2856.699004,12.852347
2857.663454,13.646022
2858.627903,14.780621
2859.592352,16.117623
2860.556802,17.645417
2861.521251,19.252867
2862.485700,21.058855
2863.450150,22.82803
2864.414599,24.661618
2865.379049,26.309252
2866.343498,27.717941
2867.307947,28.784951
2868.272397,29.573961
2869.236846,30.054572
2870.201295,30.464638
2871.165745,30.857251
2872.130194,31.467625
2873.094643,32.234749
2874.059093,33.302907
2875.023542,34.529455
2875.987992,35.818458
2876.952441,36.981321
2877.916890,37.987883
2878.881340,38.681813
2879.845789,39.199185
2880.810238,39.370571
2881.774688,39.326436
2882.739137,39.052234
2883.703586,38.623307
2884.668036,38.000871
2885.632485,37.337466
2886.596934,36.524948
2887.561384,35.643148
2888.525833,34.660834
2889.490283,33.701543
2890.454732,32.640186
2891.419181,31.666562
2892.383631,30.66723
2893.348080,29.726218
2894.312529,28.740534
2895.276979,27.795663
2896.241428,26.822142
2897.205877,25.924813
2898.170327,25.014234
2899.134776,24.152336
2900.099226,23.24086
2901.063675,22.408361
2902.028124,21.576788
2902.992574,20.773525
2903.957023,19.869903
2904.921472,19.043186
2905.885922,18.187519
2906.850371,17.394861
2907.814820,16.552139
2908.779270,15.726094
2909.743719,14.828343
2910.708168,14.02187
2911.672618,13.09802
2912.637067,12.240064
2913.601517,11.400307
2914.565966,10.653437
2915.530415,9.803954
2916.494865,9.015415
2917.459314,8.289126
2918.423763,7.708659
2919.388213,7.036121
2920.352662,6.566595
2921.317111,6.172705
2922.281561,5.88078
2923.246010,5.640306
2924.210460,5.530443
2925.174909,5.400862
2926.139358,5.390985
2927.103808,5.445331
2928.068257,5.634916
2929.032706,5.828796
2929.997156,6.152411
2930.961605,6.383704
2931.926054,6.674986
2932.890504,6.994137
2933.854953,7.537786
2934.819402,8.079533
2935.783852,8.720351
2936.748301,9.36969
2937.712751,10.124627
2938.677200,10.907604
2939.641649,11.839855
2940.606099,12.769997
2941.570548,13.725244
2942.534997,14.681775
2943.499447,15.697587
2944.463896,16.533073
2945.428345,17.360298
2946.392795,18.095309
2947.357244,18.70865
2948.321694,19.074424
2949.286143,19.376329
2950.250592,19.491244
2951.215042,19.590533
2952.179491,19.592902
2953.143940,19.625319
2954.108390,19.619576
2955.072839,19.703652
2956.037288,19.845063
2957.001738,20.193902
2957.966187,20.655027
2958.930636,21.237963
2959.895086,21.883432
2960.859535,22.766908
2961.823985,23.779303
2962.788434,24.998146
2963.752883,26.287794
2964.717333,27.822252
2965.681782,29.528042
2966.646231,31.496776
2967.610681,33.563645
2968.575130,35.673697
2969.539579,37.793146
2970.504029,40.08035
2971.468478,42.374898
2972.432928,44.63982
2973.397377,46.796347
2974.361826,49.012308
2975.326276,51.128102
2976.290725,53.217548
2977.255174,55.199154
2978.219624,57.210439
2979.184073,59.104101
2980.148522,60.896714
2981.112972,62.567908
2982.077421,64.245689
2983.041870,65.716826
2984.006320,67.084984
2984.970769,68.307533
2985.935219,69.423462
2986.899668,70.253335
2987.864117,70.974759
2988.828567,71.528275
2989.793016,71.82469
2990.757465,71.747537
2991.721915,71.562102
2992.686364,71.153142
2993.650813,70.362492
2994.615263,69.142615
2995.579712,67.754807
2996.544162,66.194212
2997.508611,64.536502
2998.473060,62.706613
2999.437510,60.826539
3000.401959,58.825974
3001.366408,56.990406
3002.330858,55.354081
3003.295307,53.928148
3004.259756,52.622688
3005.224206,51.600528
3006.188655,50.914602
3007.153104,50.545624
3008.117554,50.501528
3009.082003,50.912738
3010.046453,51.606203
3011.010902,52.773382
3011.975351,54.212741
3012.939801,56.010225
3013.904250,58.283434
3014.868699,60.855392
3015.833149,63.619214
3016.797598,66.582601
3017.762047,69.522186
3018.726497,72.501676
3019.690946,75.440066
3020.655396,78.344553
3021.619845,81.006552
3022.584294,83.486563
3023.548744,85.793227
3024.513193,87.900894
3025.477642,89.731956
3026.442092,91.440588
3027.406541,92.99684
3028.370990,94.417198
3029.335440,95.695921
3030.299889,96.78467
3031.264338,97.591911
3032.228788,98.428615
3033.193237,99.356054
3034.157687,100.147467
3035.122136,100.850073
3036.086585,101.516057
3037.051035,102.077112
3038.015484,102.582712
3038.979933,102.879228
3039.944383,103.232914
3040.908832,103.745881
3041.873281,104.176307
3042.837731,104.453415
3043.802180,104.810747
3044.766630,105.153882
3045.731079,105.442225
3046.695528,105.722882
3047.659978,105.887972
3048.624427,105.911717
3049.588876,106.138382
3050.553326,106.465683
3051.517775,106.75365
3052.482224,106.896902
3053.446674,106.963386
3054.411123,106.982529
3055.375572,107.018377
3056.340022,107.030677
3057.304471,107.308983
3058.268921,107.472668
3059.233370,107.491899
3060.197819,107.436915
3061.162269,107.406937
3062.126718,107.466659
3063.091167,107.561861
3064.055617,107.459459
3065.020066,107.501675
3065.984515,107.704234
3066.948965,107.727387
3067.913414,108.004344
3068.877864,108.333467
3069.842313,108.490472
3070.806762,108.751459
3071.771212,108.941781
3072.735661,109.214909
3073.700110,109.541763
3074.664560,109.898776
3075.629009,110.224621
3076.593458,110.461036
3077.557908,110.529326
3078.522357,110.719469
3079.486806,110.990673
3080.451256,111.217733
3081.415705,111.361472
3082.380155,111.530618
3083.344604,111.7104
3084.309053,111.817892
3085.273503,111.926835
3086.237952,112.020966
3087.202401,112.110715
3088.166851,112.183935
3089.131300,112.263014
3090.095749,112.36032
3091.060199,112.441022
3092.024648,112.585538
3092.989098,112.773169
3093.953547,112.997601
3094.917996,113.125041
3095.882446,113.104387
3096.846895,113.267056
3097.811344,113.346326
3098.775794,113.283489
3099.740243,113.339115
3100.704692,113.456952
3101.669142,113.627923
3102.633591,113.75383
3103.598040,113.781404
3104.562490,113.811418
3105.526939,113.853797
3106.491389,113.869494
3107.455838,113.851751
3108.420287,113.766203
3109.384737,113.89606
3110.349186,114.157728
3111.313635,114.334347
3112.278085,114.337058
3113.242534,114.253349
3114.206983,114.115948
3115.171433,114.099293
3116.135882,114.269893
3117.100332,114.488922
3118.064781,114.413954
3119.029230,114.312947
3119.993680,114.577161
3120.958129,114.817736
3121.922578,114.843433
3122.887028,114.844459
3123.851477,114.928122
3124.815926,114.997306
3125.780376,115.029498
3126.744825,114.996933
3127.709274,114.983102
3128.673724,114.962154
3129.638173,114.999194
3130.602623,115.159009
3131.567072,115.319255
3132.531521,115.347707
3133.495971,115.389096
3134.460420,115.496821
3135.424869,115.486675
3136.389319,115.482441
3137.353768,115.450651
3138.318217,115.445357
3139.282667,115.482328
3140.247116,115.604545
3141.211566,115.622117
3142.176015,115.588174
3143.140464,115.683497
3144.104914,115.806159
3145.069363,115.798724
3146.033812,115.703779
3146.998262,115.641833
3147.962711,115.67478
3148.927160,115.701949
3149.891610,115.729155
3150.856059,115.65084
3151.820508,115.624329
3152.784958,115.606536
3153.749407,115.708852
3154.713857,115.90185
3155.678306,116.026765
3156.642755,116.068929
3157.607205,116.053222
3158.571654,116.070767
3159.536103,116.229086
3160.500553,116.206419
3161.465002,116.021168
3162.429451,115.972442
3163.393901,116.132141
3164.358350,116.133722
3165.322800,116.075891
3166.287249,116.026838
3167.251698,116.016541
3168.216148,116.1006
3169.180597,116.105902
3170.145046,116.243781
3171.109496,116.366151
3172.073945,116.338545
3173.038394,116.255298
3174.002844,116.246977
3174.967293,116.283275
3175.931742,116.375496
3176.896192,116.448743
3177.860641,116.206427
3178.825091,116.197299
3179.789540,116.407304
3180.753989,116.451601
3181.718439,116.341381
3182.682888,116.383193
3183.647337,116.514479
3184.611787,116.474807
3185.576236,116.458076
3186.540685,116.40655
3187.505135,116.320861
3188.469584,116.369776
3189.434034,116.414686
3190.398483,116.542431
3191.362932,116.607926
3192.327382,116.601539
3193.291831,116.661184
3194.256280,116.695047
3195.220730,116.76739
3196.185179,116.856895
3197.149628,116.907712
3198.114078,116.844945
3199.078527,116.869291
3200.042976,116.786019
3201.007426,116.757225
3201.971875,116.894257
3202.936325,117.077817
3203.900774,117.069603
3204.865223,116.96907
3205.829673,117.000086
3206.794122,117.132686
3207.758571,117.185089
3208.723021,117.052324
3209.687470,116.940657
3210.651919,117.062222
3211.616369,117.317477
3212.580818,117.42653
3213.545268,117.371985
3214.509717,117.305816
3215.474166,117.512475
3216.438616,117.564407
3217.403065,117.410804
3218.367514,117.384099
3219.331964,117.41282
3220.296413,117.520528
3221.260862,117.624026
3222.225312,117.662928
3223.189761,117.700899
3224.154210,117.699781
3225.118660,117.585798
3226.083109,117.541191
3227.047559,117.357712
3228.012008,117.294647
3228.976457,117.43762
3229.940907,117.542355
3230.905356,117.544976
3231.869805,117.505631
3232.834255,117.606706
3233.798704,117.644266
3234.763153,117.755959
3235.727603,117.809177
3236.692052,117.659031
3237.656502,117.600293
3238.620951,117.768176
3239.585400,117.952507
3240.549850,117.938354
3241.514299,117.9888
3242.478748,117.942155
3243.443198,117.813282
3244.407647,117.838534
3245.372096,117.912402
3246.336546,117.974744
3247.300995,117.825248
3248.265444,117.760525
3249.229894,117.844667
3250.194343,117.957699
3251.158793,118.019221
3252.123242,118.106844
3253.087691,118.145196
3254.052141,117.935763
3255.016590,117.949757
3255.981039,118.150244
3256.945489,118.279863
3257.909938,118.265328
3258.874387,118.154921
3259.838837,117.970902
3260.803286,117.96847
3261.767736,118.215649
3262.732185,118.391511
3263.696634,118.297158
3264.661084,118.123609
3265.625533,118.098983
3266.589982,118.163855
3267.554432,118.17792
3268.518881,118.101551
3269.483330,117.977161
3270.447780,117.867771
3271.412229,117.905093
3272.376678,118.063767
3273.341128,118.102091
3274.305577,118.143018
3275.270027,118.304239
3276.234476,118.235777
3277.198925,118.346261
3278.163375,118.471838
3279.127824,118.232428
3280.092273,117.924546
3281.056723,117.964044
3282.021172,118.038687
3282.985621,118.036143
3283.950071,118.089946
3284.914520,118.181013
3285.878970,118.190499
3286.843419,118.12284
3287.807868,118.134333
3288.772318,118.238696
3289.736767,118.30012
3290.701216,118.211572
3291.665666,118.058433
3292.630115,117.976057
3293.594564,117.930145
3294.559014,117.87732
3295.523463,117.860609
3296.487912,117.930735
3297.452362,118.085563
3298.416811,118.165492
3299.381261,118.086388
3300.345710,118.105612
3301.310159,118.185126
3302.274609,118.149374
3303.239058,118.084817
3304.203507,118.082798
3305.167957,118.202216
3306.132406,118.254764
3307.096855,118.189453
3308.061305,118.203089
3309.025754,118.342107
3309.990204,118.669918
3310.954653,118.799987
3311.919102,118.718771
3312.883552,118.533569
3313.848001,118.642873
3314.812450,118.85755
3315.776900,118.857881
3316.741349,118.892732
3317.705798,118.837635
3318.670248,118.756708
3319.634697,118.702079
3320.599146,118.683995
3321.563596,118.648621
3322.528045,118.450537
3323.492495,118.298152
3324.456944,118.278147
3325.421393,118.343469
3326.385843,118.436636
3327.350292,118.561097
3328.314741,118.672632
3329.279191,118.650814
3330.243640,118.63804
3331.208089,118.682558
3332.172539,118.679845
3333.136988,118.67296
3334.101438,118.640619
3335.065887,118.668838
3336.030336,118.507523
3336.994786,118.207573
3337.959235,118.353128
3338.923684,118.365249
3339.888134,118.223271
3340.852583,118.027069
3341.817032,117.964802
3342.781482,118.13506
3343.745931,118.490214
3344.710380,118.691391
3345.674830,118.617841
3346.639279,118.487055
3347.603729,118.395624
3348.568178,118.487532
3349.532627,118.614505
3350.497077,118.642347
3351.461526,118.600753
3352.425975,118.46088
3353.390425,118.406543
3354.354874,118.476331
3355.319323,118.427476
3356.283773,118.582921
3357.248222,118.784109
3358.212672,118.611222
3359.177121,118.336039
3360.141570,118.289845
3361.106020,118.271159
3362.070469,118.351814
3363.034918,118.582485
3363.999368,118.555645
3364.963817,118.358072
3365.928266,118.085884
3366.892716,118.188501
3367.857165,118.269201
3368.821614,118.148413
3369.786064,118.29747
3370.750513,118.517061
3371.714963,118.594206
3372.679412,118.694971
3373.643861,118.725848
3374.608311,118.62935
3375.572760,118.787231
3376.537209,118.898414
3377.501659,118.742564
3378.466108,118.644619
3379.430557,118.569181
3380.395007,118.612846
3381.359456,118.692965
3382.323906,118.52342
3383.288355,118.488139
3384.252804,118.630599
3385.217254,118.600342
3386.181703,118.559419
3387.146152,118.648495
3388.110602,118.591446
3389.075051,118.491867
3390.039500,118.420613
3391.003950,118.443288
3391.968399,118.379339
3392.932848,118.126527
3393.897298,118.248184
3394.861747,118.504411
3395.826197,118.555188
3396.790646,118.381949
3397.755095,118.311331
3398.719545,118.455155
3399.683994,118.35816
3400.648443,118.267944
3401.612893,118.193933
3402.577342,118.217374
3403.541791,118.308515
3404.506241,118.396006
3405.470690,118.410633
3406.435140,118.392795
3407.399589,118.196154
3408.364038,118.062814
3409.328488,118.195928
3410.292937,118.330583
3411.257386,118.240263
3412.221836,118.177938
3413.186285,118.340668
3414.150734,118.644892
3415.115184,118.593016
3416.079633,118.451048
3417.044082,118.520611
3418.008532,118.569963
3418.972981,118.443089
3419.937431,118.022062
3420.901880,117.760022
3421.866329,118.001918
3422.830779,118.08829
3423.795228,118.151866
3424.759677,118.109397
3425.724127,117.92553
3426.688576,117.546954
3427.653025,117.313194
3428.617475,117.08921
3429.581924,116.931933
3430.546374,117.016557
3431.510823,117.131343
3432.475272,117.10227
3433.439722,117.04063
3434.404171,117.066106
3435.368620,117.107962
3436.333070,117.102095
3437.297519,117.091011
3438.261968,117.236478
3439.226418,117.374145
3440.190867,117.202106
3441.155316,117.081062
3442.119766,116.782397
3443.084215,116.689651
3444.048665,117.094967
3445.013114,116.918126
3445.977563,116.299467
3446.942013,115.297861
3447.906462,115.454029
3448.870911,116.001819
3449.835361,115.855831
3450.799810,115.694771
3451.764259,115.664765
3452.728709,115.753205
3453.693158,115.759213
3454.657608,115.650263
3455.622057,115.393296
3456.586506,115.261235
3457.550956,115.280957
3458.515405,115.00074
3459.479854,114.552021
3460.444304,114.404477
3461.408753,114.192592
3462.373202,113.848578
3463.337652,113.723412
3464.302101,113.655059
3465.266550,113.40543
3466.231000,112.977395
3467.195449,112.57916
3468.159899,112.820011
3469.124348,112.895576
3470.088797,112.888574
3471.053247,113.157434
3472.017696,113.402769
3472.982145,113.330234
3473.946595,113.349661
3474.911044,113.350327
3475.875493,113.496204
3476.839943,113.484238
3477.804392,113.209023
3478.768842,113.140474
3479.733291,113.350936
3480.697740,113.468646
3481.662190,113.334001
3482.626639,113.011715
3483.591088,113.299757
3484.555538,113.586603
3485.519987,113.694618
3486.484436,113.695151
3487.448886,113.513311
3488.413335,113.36067
3489.377784,113.922367
3490.342234,114.222495
3491.306683,114.14283
3492.271133,114.232582
3493.235582,114.373474
3494.200031,114.33845
3495.164481,114.306633
3496.128930,114.292039
3497.093379,114.333268
3498.057829,114.660435
3499.022278,114.805197
3499.986727,114.778051
3500.951177,114.60497
3501.915626,114.13137
3502.880076,113.854693
3503.844525,114.067548
3504.808974,114.409197
3505.773424,114.663632
3506.737873,115.096161
3507.702322,115.280476
3508.666772,114.676169
3509.631221,113.98082
3510.595670,114.377273
3511.560120,114.511893
3512.524569,114.599713
3513.489018,114.735278
3514.453468,114.942544
3515.417917,115.044946
3516.382367,115.06585
3517.346816,115.121546
3518.311265,115.080191
3519.275715,115.056762
3520.240164,115.212366
3521.204613,115.164115
3522.169063,114.668804
3523.133512,113.981604
3524.097961,114.452831
3525.062411,115.028036
3526.026860,115.206044
3526.991310,114.594987
3527.955759,114.251225
3528.920208,114.332584
3529.884658,114.594056
3530.849107,114.697771
3531.813556,114.785847
3532.778006,115.076682
3533.742455,115.150518
3534.706904,115.153613
3535.671354,114.899147
3536.635803,114.684426
3537.600252,115.35804
3538.564702,115.607224
3539.529151,115.628614
3540.493601,115.672912
3541.458050,115.719434
3542.422499,115.576594
3543.386949,115.554931
3544.351398,115.438047
3545.315847,115.365138
3546.280297,115.920134
3547.244746,115.768911
3548.209195,115.988537
3549.173645,116.329177
3550.138094,116.342198
3551.102544,116.427697
3552.066993,116.297206
3553.031442,116.713381
3553.995892,116.948796
3554.960341,117.187152
3555.924790,117.286741
3556.889240,117.196493
3557.853689,117.361537
3558.818138,117.661043
3559.782588,117.546638
3560.747037,117.547276
3561.711486,117.902276
3562.675936,118.266676
3563.640385,118.593661
3564.604835,119.08129
3565.569284,118.874996
3566.533733,118.372635
3567.498183,118.919131
3568.462632,118.430137
3569.427081,119.100847
3570.391531,118.872157
3571.355980,118.841618
3572.320429,119.023232
3573.284879,119.126797
3574.249328,119.150329
3575.213778,119.252049
3576.178227,119.448929
3577.142676,119.464003
3578.107126,119.683639
3579.071575,119.681717
3580.036024,119.583883
3581.000474,119.846574
3581.964923,120.130367
3582.929372,120.077281
3583.893822,120.18653
3584.858271,120.951756
3585.822720,121.096902
3586.787170,120.361921
3587.751619,121.061082
3588.716069,120.57141
3589.680518,121.067294
3590.644967,121.352378
3591.609417,121.206407
3592.573866,120.754037
3593.538315,120.725129
3594.502765,121.120819
3595.467214,120.777095
3596.431663,121.428713
3597.396113,121.747219
3598.360562,121.149559
3599.325012,121.35319
3600.289461,121.493226
3601.253910,121.365415
3602.218360,121.713534
3603.182809,121.556274
3604.147258,121.805265
3605.111708,122.163935
3606.076157,122.417152
3607.040606,122.112076
3608.005056,122.963597
3608.969505,121.978028
3609.933954,121.906136
3610.898404,122.758948
3611.862853,121.990747
3612.827303,121.623172
3613.791752,122.436769
3614.756201,122.215144
3615.720651,122.49045
3616.685100,123.01506
3617.649549,122.443912
3618.613999,123.080094
3619.578448,122.628241
3620.542897,122.511738
3621.507347,122.689154
3622.471796,122.742358
3623.436246,122.662951
3624.400695,122.704805
3625.365144,122.792891
3626.329594,122.997567
3627.294043,123.945603
3628.258492,123.157211
3629.222942,122.711124
3630.187391,123.471823
3631.151840,123.657284
3632.116290,123.620116
3633.080739,123.273832
3634.045188,122.88698
3635.009638,123.289094
3635.974087,123.428536
3636.938537,123.298902
3637.902986,123.18804
3638.867435,123.439865
3639.831885,123.81987
3640.796334,124.175132
3641.760783,124.291677
3642.725233,124.196385
3643.689682,124.553505
3644.654131,124.846467
3645.618581,125.407849
3646.583030,124.567286
3647.547480,123.710071
3648.511929,124.972742
3649.476378,123.258041
3650.440828,123.076036
3651.405277,124.150504
3652.369726,125.144275
3653.334176,124.859452
3654.298625,124.672572
3655.263074,124.371289
3656.227524,123.201865
3657.191973,124.233693
3658.156422,124.580448
3659.120872,123.902282
3660.085321,123.596412
3661.049771,123.869993
3662.014220,124.277192
3662.978669,124.479577
3663.943119,124.518682
3664.907568,124.382013
3665.872017,124.407107
3666.836467,124.78255
3667.800916,125.185216
3668.765365,124.969012
3669.729815,125.295918
3670.694264,124.687427
3671.658714,125.293483
3672.623163,126.236991
3673.587612,125.782752
3674.552062,123.618598
3675.516511,121.833193
3676.480960,125.31442
3677.445410,125.554202
3678.409859,125.024159
3679.374308,124.290109
3680.338758,124.632663
3681.303207,125.053586
3682.267656,124.944343
3683.232106,124.867296
3684.196555,124.672401
3685.161005,124.799175
3686.125454,125.111889
3687.089903,125.078217
3688.054353,124.129378
3689.018802,124.982405
3689.983251,126.227049
3690.947701,124.657223
3691.912150,125.15935
3692.876599,125.716013
3693.841049,125.189864
3694.805498,124.896724
3695.769948,124.845016
3696.734397,124.909266
3697.698846,125.072742
3698.663296,125.092676
3699.627745,125.220372
3700.592194,125.324153
3701.556644,124.807689
3702.521093,125.222269
3703.485542,125.76378
3704.449992,125.641712
3705.414441,125.46439
3706.378890,125.42458
3707.343340,125.754532
3708.307789,126.141444
3709.272239,125.968879
3710.236688,127.44903
3711.201137,127.297112
3712.165587,125.620769
3713.130036,126.868723
3714.094485,126.650052
3715.058935,125.805989
3716.023384,125.665449
3716.987833,125.55441
3717.952283,125.493979
3718.916732,125.097388
3719.881182,125.51222
3720.845631,125.89195
3721.810080,124.970827
3722.774530,124.816405
3723.738979,125.774689
3724.703428,125.521696
3725.667878,125.514722
3726.632327,125.757864
3727.596776,126.130539
3728.561226,126.197951
3729.525675,125.895897
3730.490124,125.89573
3731.454574,125.743114
3732.419023,125.713992
3733.383473,127.304717
3734.347922,126.006066
3735.312371,124.984748
3736.276821,126.562535
3737.241270,126.341775
3738.205719,125.695386
3739.170169,125.48278
3740.134618,125.626347
3741.099067,125.453609
3742.063517,126.657244
3743.027966,127.439065
3743.992416,125.318414
3744.956865,125.528102
3745.921314,128.622488
3746.885764,128.395683
3747.850213,128.391936
3748.814662,128.221273
3749.779112,127.473086
3750.743561,129.184736
3751.708010,127.074438
3752.672460,126.512572
3753.636909,127.221737
3754.601358,126.377979
3755.565808,125.848514
3756.530257,125.361384
3757.494707,126.045235
3758.459156,126.178948
3759.423605,125.191411
3760.388055,125.867847
3761.352504,126.331113
3762.316953,125.999169
3763.281403,126.014823
3764.245852,126.10222
3765.210301,125.778871
3766.174751,125.792388
3767.139200,126.286221
3768.103650,126.3143
3769.068099,126.293153
3770.032548,125.897658
3770.996998,126.41348
3771.961447,126.406068
3772.925896,126.210444
3773.890346,126.159917
3774.854795,126.14958
3775.819244,126.093513
3776.783694,126.133129
3777.748143,126.256796
3778.712592,125.977662
3779.677042,125.4598
3780.641491,126.377199
3781.605941,126.472005
3782.570390,126.173639
3783.534839,126.002165
3784.499289,125.692025
3785.463738,126.112559
3786.428187,126.561915
3787.392637,126.45763
3788.357086,126.26012
3789.321535,126.058834
3790.285985,126.011914
3791.250434,126.108314
3792.214884,126.201601
3793.179333,126.267214
3794.143782,126.387366
3795.108232,126.514958
3796.072681,126.432068
3797.037130,126.658426
3798.001580,127.254732
3798.966029,127.329725
3799.930478,127.424245
3800.894928,126.171003
3801.859377,126.159848
3802.823826,126.753454
3803.788276,126.71661
3804.752725,126.76864
3805.717175,126.683668
3806.681624,125.798342
3807.646073,126.352092
3808.610523,127.21773
3809.574972,126.726119
3810.539421,126.512694
3811.503871,126.474199
3812.468320,126.547602
3813.432769,126.795809
3814.397219,127.281944
3815.361668,126.772425
3816.326118,126.270516
3817.290567,127.848779
3818.255016,127.769255
3819.219466,127.404756
3820.183915,127.132687
3821.148364,126.208464
3822.112814,127.077179
3823.077263,127.082261
3824.041712,126.487749
3825.006162,126.424601
3825.970611,126.302694
3826.935060,126.023669
3827.899510,126.526154
3828.863959,126.703896
3829.828409,126.808449
3830.792858,126.937527
3831.757307,126.766015
3832.721757,127.832621
3833.686206,128.041411
3834.650655,126.693574
3835.615105,126.992933
3836.579554,128.338284
3837.544003,126.222076
3838.508453,126.449034
3839.472902,127.46854
3840.437352,126.600397
3841.401801,126.842111
3842.366250,126.864925
3843.330700,125.741883
3844.295149,125.670908
3845.259598,126.440005
3846.224048,126.262328
3847.188497,126.306991
3848.152946,126.626072
3849.117396,126.566574
3850.081845,127.058337
3851.046294,127.871429
3852.010744,126.697496
3852.975193,128.323691
3853.939643,128.40527
3854.904092,128.805586
3855.868541,129.064044
3856.832991,127.108322
3857.797440,126.183765
3858.761889,126.747002
3859.726339,126.594965
3860.690788,126.813481
3861.655237,126.229963
3862.619687,126.822578
3863.584136,127.160477
3864.548586,125.179738
3865.513035,125.744397
3866.477484,127.470439
3867.441934,127.57855
3868.406383,127.125276
3869.370832,124.573549
3870.335282,124.929488
3871.299731,127.275117
3872.264180,127.778853
3873.228630,126.948081
3874.193079,125.454339
3875.157528,126.965277
3876.121978,127.268633
3877.086427,126.884097
3878.050877,127.288037
3879.015326,127.334491
3879.979775,125.398597
3880.944225,125.93329
3881.908674,127.95004
3882.873123,127.502512
3883.837573,126.859101
3884.802022,126.349879
3885.766471,124.631332
3886.730921,126.346809
3887.695370,127.256214
3888.659820,127.034003
3889.624269,126.928961
3890.588718,126.180287
3891.553168,125.534782
3892.517617,127.185488
3893.482066,127.275175
3894.446516,126.630486
3895.410965,126.586122
3896.375414,126.426427
3897.339864,126.026709
3898.304313,125.65341
3899.268762,125.992467
3900.233212,127.778864
3901.197661,127.634506
3902.162111,125.826135
3903.126560,127.359644
3904.091009,126.475881
3905.055459,126.754063
3906.019908,126.427866
3906.984357,126.031772
3907.948807,125.928312
3908.913256,125.691845
3909.877705,125.71111
3910.842155,125.77425
3911.806604,125.731502
3912.771054,125.826001
3913.735503,126.056371
3914.699952,126.347824
3915.664402,126.545655
3916.628851,126.061705
3917.593300,125.963242
3918.557750,126.111858
3919.522199,125.543348
3920.486648,125.435646
3921.451098,126.155057
3922.415547,126.028507
3923.379996,125.41255
3924.344446,125.211838
3925.308895,125.77245
3926.273345,126.24372
3927.237794,126.169126
3928.202243,125.911452
3929.166693,125.756491
3930.131142,125.750014
3931.095591,126.054967
3932.060041,125.862596
3933.024490,125.807998
3933.988939,125.821552
3934.953389,125.649
3935.917838,125.795592
3936.882288,125.822916
3937.846737,125.697362
3938.811186,125.618719
3939.775636,125.627623
3940.740085,125.736741
3941.704534,125.853021
3942.668984,125.402146
3943.633433,125.660504
3944.597882,125.747594
3945.562332,125.586251
3946.526781,125.437959
3947.491230,125.208048
3948.455680,125.636698
3949.420129,125.837879
3950.384579,125.528465
3951.349028,125.762902
3952.313477,125.596574
3953.277927,125.378209
3954.242376,125.450058
3955.206825,125.351376
3956.171275,125.309986
3957.135724,125.352282
3958.100173,125.465693
3959.064623,125.676242
3960.029072,125.558732
3960.993522,125.37585
3961.957971,125.147243
3962.922420,125.373507
3963.886870,125.507439
3964.851319,125.525999
3965.815768,125.630854
3966.780218,125.610848
3967.744667,125.59141
3968.709116,125.463607
3969.673566,125.650032
3970.638015,125.82215
3971.602464,125.346767
3972.566914,125.237799
3973.531363,125.581895
3974.495813,125.363227
3975.460262,125.116426
3976.424711,125.329585
3977.389161,125.659279
3978.353610,125.599389
3979.318059,125.501947
3980.282509,125.546021
3981.246958,125.358091
3982.211407,125.073508
3983.175857,125.232931
3984.140306,125.452755
3985.104756,125.381519
3986.069205,125.595675
3987.033654,125.755132
3987.998104,125.643425
3988.962553,125.518886
3989.927002,125.367361
3990.891452,125.376218
3991.855901,125.768346
3992.820350,125.720021
3993.784800,125.552686
3994.749249,125.444941
3995.713698,125.405017
3996.678148,125.427978
3997.642597,125.619701
3998.607047,125.823069
3999.571496,125.836834
4000.535945,125.641052
